Zeit  1 - Standardmessrate [s]	ZwickWeg [mm]	ZwickKraft [N]	Pyrometer [°C]	Maytec [mm]
0	-0,4995	152,28	150,10	-0,01997	
0,02000	-0,4995	152,23	150,11	-0,02002	
0,04000	-0,4995	152,22	150,11	-0,02003	
0,06000	-0,4995	152,24	150,10	-0,01997	
0,08000	-0,4995	152,24	150,10	-0,01988	
0,1000	-0,4995	152,25	150,10	-0,01981	
0,1200	-0,4995	152,30	150,10	-0,01980	
0,1400	-0,4995	152,35	150,09	-0,01984	
0,1600	-0,4995	152,42	150,09	-0,01990	
0,1800	-0,4995	152,45	150,09	-0,01995	
0,2000	-0,4995	152,41	150,09	-0,01998	
0,2200	-0,4995	152,34	150,10	-0,01993	
0,2400	-0,4995	152,29	150,10	-0,01985	
0,2600	-0,4995	152,96	150,10	-0,01978	
0,2800	-0,4995	154,49	150,11	-0,01967	
0,3000	-0,4995	155,48	150,11	-0,01962	
0,3200	-0,4995	155,70	150,10	-0,01974	
0,3400	-0,4995	155,02	150,10	-0,01991	
0,3600	-0,4995	153,55	150,10	-0,01995	
0,3800	-0,4995	152,64	150,10	-0,01989	
0,4000	-0,4995	152,38	150,09	-0,01982	
0,4200	-0,4995	152,30	150,09	-0,01977	
0,4400	-0,4995	152,31	150,09	-0,01980	
0,4600	-0,4995	153,05	150,09	-0,01989	
0,4800	-0,4995	154,63	150,10	-0,01996	
0,5000	-0,4995	155,60	150,10	-0,01997	
0,5200	-0,4995	155,80	150,11	-0,01998	
0,5400	-0,4995	155,72	150,11	-0,01994	
0,5600	-0,4995	154,95	150,11	-0,01982	
0,5800	-0,4995	153,47	150,10	-0,01972	
0,6000	-0,4995	152,61	150,10	-0,01971	
0,6200	-0,4995	152,39	150,10	-0,01982	
0,6400	-0,4995	152,88	150,10	-0,01995	
0,6600	-0,4995	153,05	150,10	-0,02008	
0,6800	-0,4995	152,62	150,10	-0,02005	
0,7000	-0,4995	152,36	150,10	-0,01989	
0,7200	-0,4995	152,30	150,10	-0,01980	
0,7400	-0,4995	152,27	150,10	-0,01978	
0,7600	-0,4995	152,30	150,10	-0,01978	
0,7800	-0,4995	152,29	150,10	-0,01978	
0,8000	-0,4995	152,27	150,11	-0,01982	
0,8200	-0,4995	152,31	150,10	-0,01989	
0,8400	-0,4995	152,36	150,10	-0,01993	
0,8600	-0,4995	152,35	150,10	-0,01993	
0,8800	-0,4995	152,32	150,09	-0,01986	
0,9000	-0,4995	152,30	150,10	-0,01978	
0,9200	-0,4995	152,27	150,10	-0,01973	
0,9400	-0,4995	152,26	150,10	-0,01974	
0,9600	-0,4995	152,26	150,10	-0,01980	
0,9800	-0,4995	152,26	150,10	-0,01992	
1,000	-0,4995	152,25	150,10	-0,02001	
1,020	-0,4995	152,29	150,10	-0,02002	
1,040	-0,4995	152,26	150,11	-0,01995	
1,060	-0,4995	152,27	150,11	-0,01982	
1,080	-0,4995	152,31	150,11	-0,01974	
1,100	-0,4995	152,25	150,10	-0,01971	
1,120	-0,4995	152,27	150,10	-0,01982	
1,140	-0,4995	152,30	150,10	-0,01995	
1,160	-0,4995	152,29	150,10	-0,02000	
1,180	-0,4995	152,38	150,10	-0,02000	
1,200	-0,4995	153,06	150,10	-0,01994	
1,220	-0,4995	154,06	150,10	-0,01983	
1,240	-0,4995	154,55	150,10	-0,01970	
1,260	-0,4995	153,85	150,10	-0,01967	
1,280	-0,4995	152,77	150,11	-0,01975	
1,300	-0,4995	152,36	150,11	-0,01991	
1,320	-0,4995	152,34	150,10	-0,02001	
1,340	-0,4995	152,38	150,10	-0,02003	
1,360	-0,4995	152,35	150,10	-0,01996	
1,380	-0,4995	152,23	150,10	-0,01985	
1,400	-0,4995	152,18	150,10	-0,01979	
1,420	-0,4995	152,21	150,10	-0,01971	
1,440	-0,4995	152,23	150,10	-0,01973	
1,460	-0,4995	152,22	150,10	-0,01986	
1,480	-0,4995	152,23	150,10	-0,01995	
1,500	-0,4995	152,21	150,10	-0,01997	
1,520	-0,4995	152,21	150,11	-0,01991	
1,540	-0,4995	152,25	150,11	-0,01983	
1,560	-0,4995	152,29	150,10	-0,01980	
1,580	-0,4995	152,32	150,10	-0,01980	
1,600	-0,4995	152,34	150,10	-0,01985	
1,620	-0,4995	152,28	150,10	-0,02000	
1,640	-0,4995	152,30	150,10	-0,02009	
1,660	-0,4995	152,39	150,10	-0,02009	
1,680	-0,4995	152,43	150,10	-0,02003	
1,700	-0,4995	152,44	150,10	-0,01995	
1,720	-0,4995	152,43	150,10	-0,01985	
1,740	-0,4995	152,44	150,10	-0,01973	
1,760	-0,4995	152,41	150,11	-0,01977	
1,780	-0,4995	152,41	150,11	-0,01991	
1,800	-0,4995	152,46	150,11	-0,02000	
1,820	-0,4995	152,47	150,10	-0,02007	
1,840	-0,4995	152,48	150,10	-0,02010	
1,860	-0,4995	152,52	150,10	-0,02004	
1,880	-0,4995	152,47	150,10	-0,01992	
1,900	-0,4995	152,41	150,10	-0,01983	
1,920	-0,4995	152,39	150,10	-0,01981	
1,940	-0,4995	152,39	150,10	-0,01988	
1,960	-0,4995	152,37	150,11	-0,01996	
1,980	-0,4995	152,33	150,11	-0,02002	
2,000	-0,4995	152,31	150,11	-0,01999	
2,020	-0,4995	152,34	150,10	-0,01991	
2,040	-0,4995	152,36	150,10	-0,01981	
2,060	-0,4995	152,36	150,10	-0,01977	
2,080	-0,4995	152,36	150,10	-0,01975	
2,100	-0,4995	152,31	150,10	-0,01980	
2,120	-0,4995	152,26	150,10	-0,01993	
2,140	-0,4995	152,29	150,10	-0,02001	
2,160	-0,4995	152,32	150,11	-0,02004	
2,180	-0,4995	152,35	150,11	-0,01993	
2,200	-0,4995	152,35	150,11	-0,01977	
2,220	-0,4995	152,32	150,10	-0,01970	
2,240	-0,4995	152,34	150,10	-0,01968	
2,260	-0,4995	152,40	150,10	-0,01974	
2,280	-0,4995	152,43	150,10	-0,01992	
2,300	-0,4995	152,40	150,10	-0,01999	
2,320	-0,4995	152,34	150,10	-0,02001	
2,340	-0,4995	152,31	150,10	-0,02000	
2,360	-0,4995	152,29	150,10	-0,01993	
2,380	-0,4995	152,33	150,11	-0,01979	
2,400	-0,4995	152,32	150,11	-0,01977	
2,420	-0,4995	152,31	150,11	-0,01991	
2,440	-0,4995	152,30	150,11	-0,02004	
2,460	-0,4995	152,24	150,10	-0,02004	
2,480	-0,4995	152,22	150,10	-0,02002	
2,500	-0,4995	152,29	150,10	-0,02000	
2,520	-0,4995	152,30	150,10	-0,01988	
2,540	-0,4995	152,29	150,10	-0,01976	
2,560	-0,4995	152,35	150,11	-0,01975	
2,580	-0,4995	152,34	150,11	-0,01976	
2,600	-0,4995	152,30	150,11	-0,01987	
2,620	-0,4995	152,28	150,11	-0,02001	
2,640	-0,4995	152,24	150,10	-0,02005	
2,660	-0,4995	152,28	150,10	-0,01996	
2,680	-0,4995	152,35	150,10	-0,01984	
2,700	-0,4995	152,33	150,10	-0,01976	
2,720	-0,4995	152,28	150,10	-0,01971	
2,740	-0,4995	152,22	150,11	-0,01978	
2,760	-0,4995	152,26	150,11	-0,01992	
2,780	-0,4995	152,31	150,11	-0,02004	
2,800	-0,4995	152,33	150,11	-0,02003	
2,820	-0,4995	152,28	150,10	-0,01997	
2,840	-0,4995	152,25	150,10	-0,01991	
2,860	-0,4995	152,30	150,10	-0,01981	
2,880	-0,4995	152,35	150,10	-0,01973	
2,900	-0,4995	152,35	150,10	-0,01979	
2,920	-0,4995	152,30	150,11	-0,01990	
2,940	-0,4995	152,28	150,11	-0,01993	
2,960	-0,4995	152,27	150,11	-0,01991	
2,980	-0,4995	152,31	150,11	-0,01995	
3,000	-0,4995	152,35	150,10	-0,01992	
3,020	-0,4995	152,40	150,10	-0,01986	
3,040	-0,4995	152,45	150,10	-0,01979	
3,060	-0,4995	152,38	150,10	-0,01972	
3,080	-0,4995	152,33	150,10	-0,01978	
3,100	-0,4995	152,41	150,10	-0,01992	
3,120	-0,4995	152,41	150,11	-0,02002	
3,140	-0,4995	152,41	150,11	-0,02004	
3,160	-0,4995	152,41	150,11	-0,01998	
3,180	-0,4995	152,38	150,11	-0,01983	
3,200	-0,4995	152,35	150,10	-0,01970	
3,220	-0,4995	152,54	150,10	-0,01973	
3,240	-0,4995	153,15	150,10	-0,01984	
3,260	-0,4995	153,03	150,10	-0,01991	
3,280	-0,4995	152,56	150,10	-0,01994	
3,300	-0,4995	152,33	150,11	-0,01994	
3,320	-0,4995	152,29	150,11	-0,01990	
3,340	-0,4995	152,36	150,11	-0,01978	
3,360	-0,4995	152,39	150,10	-0,01968	
3,380	-0,4995	152,34	150,10	-0,01968	
3,400	-0,4995	152,34	150,10	-0,01972	
3,420	-0,4995	152,30	150,10	-0,01987	
3,440	-0,4995	152,24	150,10	-0,02003	
3,460	-0,4995	152,40	150,10	-0,02011	
3,480	-0,4995	153,74	150,11	-0,02006	
3,500	-0,4995	155,21	150,11	-0,01992	
3,520	-0,4995	155,82	150,11	-0,01977	
3,540	-0,4995	155,87	150,10	-0,01969	
3,560	-0,4995	155,83	150,10	-0,01968	
3,580	-0,4995	155,85	150,10	-0,01984	
3,600	-0,4995	155,83	150,09	-0,02002	
3,620	-0,4995	155,67	150,09	-0,02008	
3,640	-0,4995	154,43	150,09	-0,02004	
3,660	-0,4995	153,06	150,09	-0,01995	
3,680	-0,4995	152,54	150,09	-0,01982	
3,700	-0,4995	152,48	150,09	-0,01977	
3,720	-0,4995	152,51	150,09	-0,01979	
3,740	-0,4995	153,14	150,10	-0,01986	
3,760	-0,4995	154,59	150,10	-0,01999	
3,780	-0,4995	155,50	150,10	-0,01999	
3,800	-0,4995	155,59	150,10	-0,01995	
3,820	-0,4995	154,35	150,11	-0,01992	
3,840	-0,4995	152,94	150,10	-0,01985	
3,860	-0,4995	152,43	150,10	-0,01973	
3,880	-0,4995	152,47	150,10	-0,01968	
3,900	-0,4995	152,54	150,10	-0,01977	
3,920	-0,4995	152,59	150,09	-0,01991	
3,940	-0,4995	152,62	150,09	-0,01997	
3,960	-0,4995	152,55	150,09	-0,01997	
3,980	-0,4995	152,54	150,09	-0,02001	
4,000	-0,4995	152,57	150,09	-0,01996	
4,020	-0,4995	152,54	150,09	-0,01980	
4,040	-0,4995	152,46	150,09	-0,01969	
4,060	-0,4995	152,66	150,10	-0,01969	
4,080	-0,4995	153,32	150,10	-0,01981	
4,100	-0,4995	153,15	150,10	-0,01995	
4,120	-0,4995	152,73	150,11	-0,02000	
4,140	-0,4995	152,51	150,10	-0,01996	
4,160	-0,4995	152,43	150,10	-0,01989	
4,180	-0,4995	152,46	150,10	-0,01983	
4,200	-0,4995	152,48	150,10	-0,01982	
4,220	-0,4995	152,48	150,10	-0,01980	
4,240	-0,4995	152,47	150,10	-0,01989	
4,260	-0,4995	152,51	150,09	-0,02004	
4,280	-0,4995	152,56	150,09	-0,02011	
4,300	-0,4995	152,54	150,09	-0,02008	
4,320	-0,4995	152,53	150,09	-0,01997	
4,340	-0,4995	152,71	150,09	-0,01981	
4,360	-0,4995	153,79	150,10	-0,01968	
4,380	-0,4995	154,55	150,10	-0,01965	
4,400	-0,4995	155,20	150,10	-0,01984	
4,420	-0,4995	155,04	150,11	-0,01997	
4,440	-0,4995	153,70	150,11	-0,01995	
4,460	-0,4995	153,38	150,11	-0,01993	
4,480	-0,4995	154,63	150,10	-0,01991	
4,500	-0,4995	155,55	150,10	-0,01986	
4,520	-0,4995	155,81	150,10	-0,01981	
4,540	-0,4995	155,87	150,10	-0,01981	
4,560	-0,4995	155,80	150,10	-0,01996	
4,580	-0,4995	155,76	150,10	-0,02008	
4,600	-0,4995	155,67	150,10	-0,02006	
4,620	-0,4995	154,49	150,10	-0,01994	
4,640	-0,4995	153,16	150,10	-0,01981	
4,660	-0,4995	152,61	150,11	-0,01975	
4,680	-0,4995	152,52	150,11	-0,01973	
4,700	-0,4995	152,58	150,10	-0,01978	
4,720	-0,4995	152,52	150,10	-0,01989	
4,740	-0,4995	152,42	150,10	-0,02004	
4,760	-0,4995	152,40	150,10	-0,02007	
4,780	-0,4995	152,42	150,10	-0,02001	
4,800	-0,4995	152,46	150,10	-0,01990	
4,820	-0,4995	152,50	150,09	-0,01978	
4,840	-0,4995	152,52	150,10	-0,01978	
4,860	-0,4995	152,41	150,10	-0,01982	
4,880	-0,4995	152,38	150,11	-0,01983	
4,900	-0,4995	152,41	150,11	-0,01989	
4,920	-0,4995	152,41	150,11	-0,01994	
4,940	-0,4995	152,43	150,10	-0,01997	
4,960	-0,4995	152,43	150,10	-0,01997	
4,980	-0,4995	152,43	150,10	-0,01983	
5,000	-0,4995	152,44	150,09	-0,01968	
5,020	-0,4995	152,44	150,10	-0,01968	
5,040	-0,4995	152,42	150,10	-0,01978	
5,060	-0,4995	152,43	150,10	-0,01995	
5,080	-0,4995	152,45	150,10	-0,01999	
5,100	-0,4995	152,41	150,10	-0,01992	
5,120	-0,4995	152,40	150,10	-0,01986	
5,140	-0,4995	152,48	150,11	-0,01983	
5,160	-0,4995	152,53	150,11	-0,01980	
5,180	-0,4995	152,47	150,11	-0,01975	
5,200	-0,4995	152,46	150,10	-0,01978	
5,220	-0,4995	152,52	150,10	-0,01984	
5,240	-0,4995	152,52	150,10	-0,01988	
5,260	-0,4995	152,47	150,10	-0,01989	
5,280	-0,4995	152,46	150,10	-0,01987	
5,300	-0,4995	152,47	150,10	-0,01978	
5,320	-0,4995	152,46	150,10	-0,01971	
5,340	-0,4995	152,49	150,11	-0,01971	
5,360	-0,4995	152,54	150,11	-0,01981	
5,380	-0,4995	152,54	150,11	-0,01990	
5,400	-0,4995	152,49	150,10	-0,01991	
5,420	-0,4995	152,53	150,10	-0,01994	
5,440	-0,4995	152,56	150,10	-0,01994	
5,460	-0,4995	152,52	150,09	-0,01991	
5,480	-0,4995	152,44	150,09	-0,01983	
5,500	-0,4995	152,49	150,09	-0,01974	
5,520	-0,4995	152,51	150,09	-0,01971	
5,540	-0,4995	152,48	150,10	-0,01986	
5,560	-0,4995	152,47	150,10	-0,01999	
5,580	-0,4995	152,38	150,10	-0,02001	
5,600	-0,4995	152,31	150,11	-0,01992	
5,620	-0,4995	152,32	150,11	-0,01977	
5,640	-0,4995	152,37	150,11	-0,01971	
5,660	-0,4995	152,94	150,10	-0,01974	
5,680	-0,4995	153,71	150,10	-0,01980	
5,700	-0,4995	154,19	150,10	-0,01995	
5,720	-0,4995	154,97	150,10	-0,02003	
5,740	-0,4995	155,56	150,10	-0,01998	
5,760	-0,4995	155,58	150,10	-0,01992	
5,780	-0,4995	154,32	150,10	-0,01988	
5,800	-0,4995	152,90	150,10	-0,01978	
5,820	-0,4995	152,31	150,10	-0,01973	
5,840	-0,4995	152,34	150,11	-0,01970	
5,860	-0,4995	152,42	150,11	-0,01979	
5,880	-0,4995	152,43	150,10	-0,01995	
5,900	-0,4995	152,44	150,10	-0,02003	
5,920	-0,4995	152,51	150,10	-0,02003	
5,940	-0,4995	152,48	150,10	-0,01991	
5,960	-0,4995	152,44	150,10	-0,01978	
5,980	-0,4995	152,43	150,10	-0,01971	
6,000	-0,4995	152,39	150,10	-0,01970	
6,020	-0,4995	152,42	150,10	-0,01983	
6,040	-0,4995	152,42	150,10	-0,01995	
6,060	-0,4995	152,34	150,11	-0,01998	
6,080	-0,4995	152,29	150,11	-0,01999	
6,100	-0,4995	152,33	150,10	-0,01992	
6,120	-0,4995	152,37	150,10	-0,01980	
6,140	-0,4995	152,38	150,10	-0,01967	
6,160	-0,4995	152,40	150,10	-0,01962	
6,180	-0,4995	152,36	150,10	-0,01968	
6,200	-0,4995	152,33	150,10	-0,01987	
6,220	-0,4995	152,34	150,10	-0,02004	
6,240	-0,4995	152,27	150,10	-0,02005	
6,260	-0,4995	152,22	150,10	-0,01991	
6,280	-0,4995	152,27	150,11	-0,01978	
6,300	-0,4995	152,33	150,11	-0,01972	
6,320	-0,4995	152,33	150,11	-0,01971	
6,340	-0,4995	152,30	150,10	-0,01973	
6,360	-0,4995	152,29	150,10	-0,01980	
6,380	-0,4995	152,37	150,10	-0,01990	
6,400	-0,4995	152,39	150,10	-0,01989	
6,420	-0,4995	152,37	150,10	-0,01983	
6,440	-0,4995	152,38	150,10	-0,01979	
6,460	-0,4995	152,38	150,11	-0,01975	
6,480	-0,4995	152,34	150,11	-0,01976	
6,500	-0,4995	152,31	150,11	-0,01985	
6,520	-0,4995	152,34	150,11	-0,01998	
6,540	-0,4995	152,39	150,10	-0,02004	
6,560	-0,4995	152,43	150,10	-0,02001	
6,580	-0,4995	152,43	150,10	-0,01996	
6,600	-0,4995	152,37	150,10	-0,01984	
6,620	-0,4995	152,30	150,10	-0,01974	
6,640	-0,4995	152,32	150,10	-0,01975	
6,660	-0,4995	152,37	150,10	-0,01982	
6,680	-0,4995	152,35	150,11	-0,01991	
6,700	-0,4995	152,28	150,11	-0,02002	
6,720	-0,4995	152,26	150,10	-0,02007	
6,740	-0,4995	152,28	150,10	-0,01996	
6,760	-0,4995	152,32	150,10	-0,01983	
6,780	-0,4995	152,38	150,10	-0,01975	
6,800	-0,4995	152,45	150,10	-0,01974	
6,820	-0,4995	152,49	150,10	-0,01980	
6,840	-0,4995	152,42	150,10	-0,01993	
6,860	-0,4995	152,39	150,10	-0,02004	
6,880	-0,4995	152,40	150,10	-0,02007	
6,900	-0,4995	152,39	150,11	-0,02003	
6,920	-0,4995	152,38	150,11	-0,01997	
6,940	-0,4995	152,37	150,10	-0,01984	
6,960	-0,4995	152,30	150,10	-0,01973	
6,980	-0,4995	152,29	150,10	-0,01974	
7,000	-0,4995	152,34	150,10	-0,01981	
7,020	-0,4995	152,81	150,10	-0,01991	
7,040	-0,4995	153,27	150,10	-0,02001	
7,060	-0,4995	154,10	150,10	-0,02004	
7,080	-0,4995	154,00	150,10	-0,01994	
7,100	-0,4995	153,08	150,11	-0,01983	
7,120	-0,4995	152,55	150,11	-0,01977	
7,140	-0,4995	152,48	150,11	-0,01973	
7,160	-0,4995	152,46	150,10	-0,01982	
7,180	-0,4995	152,40	150,10	-0,02003	
7,200	-0,4995	152,32	150,10	-0,02013	
7,220	-0,4995	152,32	150,10	-0,02003	
7,240	-0,4995	152,33	150,10	-0,01991	
7,260	-0,4995	152,31	150,10	-0,01986	
7,280	-0,4995	152,31	150,10	-0,01978	
7,300	-0,4995	152,37	150,10	-0,01974	
7,320	-0,4995	152,99	150,11	-0,01980	
7,340	-0,4995	154,48	150,11	-0,01992	
7,360	-0,4995	155,54	150,11	-0,02001	
7,380	-0,4995	155,87	150,10	-0,02000	
7,400	-0,4995	155,87	150,10	-0,01990	
7,420	-0,4995	155,21	150,10	-0,01978	
7,440	-0,4995	153,70	150,10	-0,01973	
7,460	-0,4995	152,64	150,10	-0,01974	
7,480	-0,4995	152,29	150,10	-0,01981	
7,500	-0,4995	152,27	150,11	-0,01997	
7,520	-0,4995	152,34	150,11	-0,02004	
7,540	-0,4995	152,39	150,11	-0,02001	
7,560	-0,4995	152,45	150,10	-0,01998	
7,580	-0,4995	152,46	150,10	-0,01987	
7,600	-0,4995	152,41	150,10	-0,01979	
7,620	-0,4995	152,35	150,10	-0,01978	
7,640	-0,4995	152,34	150,10	-0,01983	
7,660	-0,4995	152,31	150,10	-0,01985	
7,680	-0,4995	152,31	150,10	-0,01987	
7,700	-0,4995	152,36	150,11	-0,01992	
7,720	-0,4995	152,99	150,11	-0,01988	
7,740	-0,4995	154,47	150,11	-0,01982	
7,760	-0,4995	154,96	150,11	-0,01971	
7,780	-0,4995	154,30	150,10	-0,01971	
7,800	-0,4995	153,22	150,10	-0,01983	
7,820	-0,4995	152,59	150,10	-0,01995	
7,840	-0,4995	152,37	150,10	-0,02003	
7,860	-0,4995	152,33	150,10	-0,02002	
7,880	-0,4995	152,31	150,11	-0,01994	
7,900	-0,4995	152,28	150,11	-0,01986	
7,920	-0,4995	152,31	150,11	-0,01978	
7,940	-0,4995	152,37	150,11	-0,01971	
7,960	-0,4995	152,40	150,10	-0,01975	
7,980	-0,4995	152,90	150,10	-0,01990	
8,000	-0,4995	153,33	150,10	-0,01999	
8,020	-0,4995	153,12	150,10	-0,01998	
8,040	-0,4995	153,88	150,10	-0,01986	
8,060	-0,4995	155,12	150,10	-0,01971	
8,080	-0,4995	155,70	150,10	-0,01966	
8,100	-0,4995	155,82	150,11	-0,01968	
8,120	-0,4995	155,76	150,11	-0,01980	
8,140	-0,4995	154,58	150,11	-0,01993	
8,160	-0,4995	153,17	150,10	-0,01997	
8,180	-0,4995	152,57	150,10	-0,02002	
8,200	-0,4995	152,48	150,10	-0,02004	
8,220	-0,4995	152,46	150,10	-0,01988	
8,240	-0,4995	152,40	150,10	-0,01971	
8,260	-0,4995	152,28	150,10	-0,01965	
8,280	-0,4995	152,22	150,10	-0,01975	
8,300	-0,4995	152,29	150,10	-0,01992	
8,320	-0,4995	152,34	150,10	-0,02005	
8,340	-0,4995	152,33	150,10	-0,02006	
8,360	-0,4995	152,39	150,11	-0,01994	
8,380	-0,4995	152,44	150,11	-0,01980	
8,400	-0,4995	152,41	150,10	-0,01973	
8,420	-0,4995	152,35	150,10	-0,01974	
8,440	-0,4995	152,31	150,10	-0,01985	
8,460	-0,4995	152,26	150,10	-0,01999	
8,480	-0,4995	152,27	150,10	-0,01999	
8,500	-0,4995	152,35	150,10	-0,01989	
8,520	-0,4995	152,43	150,10	-0,01976	
8,540	-0,4995	152,49	150,10	-0,01966	
8,560	-0,4995	152,46	150,10	-0,01960	
8,580	-0,4995	152,46	150,10	-0,01966	
8,600	-0,4995	152,45	150,11	-0,01980	
8,620	-0,4995	152,45	150,11	-0,01995	
8,640	-0,4995	152,46	150,10	-0,02002	
8,660	-0,4995	152,48	150,10	-0,01996	
8,680	-0,4995	152,38	150,09	-0,01990	
8,700	-0,4995	152,20	150,09	-0,01981	
8,720	-0,4995	152,16	150,09	-0,01971	
8,740	-0,4995	152,18	150,09	-0,01972	
8,760	-0,4995	152,22	150,10	-0,01980	
8,780	-0,4995	152,29	150,10	-0,01987	
8,800	-0,4995	152,33	150,10	-0,01995	
8,820	-0,4995	152,30	150,10	-0,01999	
8,840	-0,4995	152,31	150,10	-0,01989	
8,860	-0,4995	152,31	150,11	-0,01976	
8,880	-0,4995	152,26	150,11	-0,01967	
8,900	-0,4995	152,23	150,11	-0,01967	
8,920	-0,4995	152,20	150,10	-0,01985	
8,940	-0,4995	152,16	150,10	-0,01999	
8,960	-0,4995	152,18	150,10	-0,02000	
8,980	-0,4995	152,25	150,10	-0,01993	
9,000	-0,4995	152,33	150,09	-0,01987	
9,020	-0,4995	152,38	150,10	-0,01981	
9,040	-0,4995	152,39	150,10	-0,01971	
9,060	-0,4995	152,36	150,10	-0,01973	
9,080	-0,4995	152,31	150,10	-0,01978	
9,100	-0,4995	152,28	150,10	-0,01987	
9,120	-0,4995	152,25	150,10	-0,01995	
9,140	-0,4995	152,24	150,11	-0,01999	
9,160	-0,4995	152,24	150,11	-0,01994	
9,180	-0,4995	152,23	150,10	-0,01985	
9,200	-0,4995	152,24	150,10	-0,01975	
9,220	-0,4995	152,22	150,10	-0,01973	
9,240	-0,4995	152,20	150,10	-0,01980	
9,260	-0,4995	152,29	150,10	-0,02000	
9,280	-0,4995	152,26	150,10	-0,02008	
9,300	-0,4995	152,17	150,10	-0,02006	
9,320	-0,4995	152,17	150,10	-0,01997	
9,340	-0,4995	152,21	150,11	-0,01988	
9,360	-0,4995	152,20	150,11	-0,01983	
9,380	-0,4995	152,23	150,11	-0,01978	
9,400	-0,4995	152,31	150,10	-0,01981	
9,420	-0,4995	152,36	150,10	-0,01992	
9,440	-0,4995	152,40	150,10	-0,01997	
9,460	-0,4995	152,34	150,10	-0,01995	
9,480	-0,4995	152,26	150,10	-0,01994	
9,500	-0,4995	152,26	150,10	-0,01982	
9,520	-0,4995	152,32	150,10	-0,01972	
9,540	-0,4995	152,75	150,11	-0,01968	
9,560	-0,5000	153,63	150,21	-0,02043	
9,580	-0,4993	125,36	150,07	-0,02166	
9,600	-0,4991	80,65	150,04	-0,02179	
9,620	-0,4993	38,48	150,08	-0,02132	
9,640	-0,4989	2,493	150,10	-0,02096	
9,660	-0,4958	-23,94	150,10	-0,02078	
9,680	-0,4904	-19,11	150,10	-0,02066	
9,700	-0,4850	14,55	150,09	-0,02058	
9,720	-0,4808	54,32	150,09	-0,02058	
9,740	-0,4777	89,93	150,10	-0,02072	
9,760	-0,4756	117,42	150,09	-0,02080	
9,780	-0,4745	136,33	150,09	-0,02076	
9,800	-0,4740	147,70	150,09	-0,02059	
9,820	-0,4739	153,49	150,10	-0,02047	
9,840	-0,4739	155,94	150,10	-0,02042	
9,860	-0,4739	157,71	150,10	-0,02038	
9,880	-0,4739	158,78	150,11	-0,02044	
9,900	-0,4739	159,11	150,10	-0,02054	
9,920	-0,4739	159,06	150,10	-0,02063	
9,940	-0,4741	159,01	150,10	-0,02061	
9,960	-0,4744	158,99	150,10	-0,02056	
9,980	-0,4746	159,00	150,10	-0,02051	
10,00	-0,4746	158,98	150,10	-0,02046	
10,02	-0,4746	158,98	150,10	-0,02041	
10,04	-0,4746	159,08	150,10	-0,02043	
10,06	-0,4746	159,10	150,10	-0,02055	
10,08	-0,4746	159,04	150,10	-0,02069	
10,10	-0,4749	158,99	150,11	-0,02071	
10,12	-0,4752	158,94	150,11	-0,02061	
10,14	-0,4753	158,91	150,11	-0,02051	
10,16	-0,4753	158,94	150,11	-0,02044	
10,18	-0,4753	158,40	150,10	-0,02044	
10,20	-0,4753	156,88	150,10	-0,02055	
10,22	-0,4753	155,90	150,10	-0,02073	
10,24	-0,4753	155,60	150,10	-0,02079	
10,26	-0,4755	155,52	150,10	-0,02071	
10,28	-0,4758	155,61	150,10	-0,02056	
10,30	-0,4760	155,55	150,10	-0,02043	
10,32	-0,4760	155,44	150,10	-0,02042	
10,34	-0,4760	155,55	150,11	-0,02047	
10,36	-0,4760	155,57	150,11	-0,02052	
10,38	-0,4760	155,52	150,10	-0,02057	
10,40	-0,4760	155,53	150,10	-0,02063	
10,42	-0,4760	155,53	150,10	-0,02066	
10,44	-0,4760	155,49	150,10	-0,02062	
10,46	-0,4760	155,59	150,10	-0,02047	
10,48	-0,4760	155,58	150,10	-0,02033	
10,50	-0,4761	155,55	150,10	-0,02029	
10,52	-0,4764	155,55	150,10	-0,02041	
10,54	-0,4766	155,50	150,11	-0,02059	
10,56	-0,4766	155,49	150,11	-0,02071	
10,58	-0,4766	155,59	150,11	-0,02071	
10,60	-0,4766	155,62	150,11	-0,02050	
10,62	-0,4766	155,58	150,10	-0,02037	
10,64	-0,4766	155,56	150,10	-0,02038	
10,66	-0,4766	155,59	150,10	-0,02031	
10,68	-0,4766	155,56	150,10	-0,02032	
10,70	-0,4766	155,55	150,10	-0,02045	
10,72	-0,4766	155,53	150,10	-0,02061	
10,74	-0,4766	155,58	150,10	-0,02065	
10,76	-0,4766	155,61	150,11	-0,02060	
10,78	-0,4766	155,56	150,11	-0,02051	
10,80	-0,4766	155,49	150,11	-0,02041	
10,82	-0,4766	155,54	150,11	-0,02038	
10,84	-0,4766	155,60	150,10	-0,02040	
10,86	-0,4766	155,58	150,10	-0,02046	
10,88	-0,4766	155,64	150,10	-0,02052	
10,90	-0,4766	155,63	150,10	-0,02051	
10,92	-0,4767	155,59	150,10	-0,02057	
10,94	-0,4769	155,63	150,10	-0,02062	
10,96	-0,4772	155,52	150,10	-0,02053	
10,98	-0,4773	154,89	150,10	-0,02044	
11,00	-0,4773	155,06	150,11	-0,02039	
11,02	-0,4773	155,48	150,11	-0,02044	
11,04	-0,4773	155,66	150,11	-0,02058	
11,06	-0,4773	155,75	150,10	-0,02063	
11,08	-0,4773	155,73	150,10	-0,02064	
11,10	-0,4773	155,71	150,10	-0,02064	
11,12	-0,4773	155,74	150,10	-0,02054	
11,14	-0,4773	155,65	150,10	-0,02043	
11,16	-0,4773	155,65	150,10	-0,02036	
11,18	-0,4773	155,74	150,11	-0,02040	
11,20	-0,4773	155,74	150,11	-0,02055	
11,22	-0,4773	155,67	150,10	-0,02062	
11,24	-0,4773	155,71	150,10	-0,02061	
11,26	-0,4773	155,70	150,10	-0,02060	
11,28	-0,4773	155,66	150,10	-0,02052	
11,30	-0,4773	155,66	150,10	-0,02040	
11,32	-0,4773	155,65	150,10	-0,02037	
11,34	-0,4773	155,68	150,10	-0,02044	
11,36	-0,4773	155,75	150,10	-0,02054	
11,38	-0,4773	155,71	150,10	-0,02064	
11,40	-0,4773	155,71	150,10	-0,02063	
11,42	-0,4773	155,78	150,11	-0,02055	
11,44	-0,4773	155,73	150,11	-0,02049	
11,46	-0,4773	155,66	150,10	-0,02048	
11,48	-0,4773	155,73	150,10	-0,02040	
11,50	-0,4775	155,25	150,10	-0,02031	
11,52	-0,4778	154,32	150,10	-0,02037	
11,54	-0,4779	154,77	150,09	-0,02053	
11,56	-0,4780	155,47	150,10	-0,02067	
11,58	-0,4780	155,77	150,10	-0,02064	
11,60	-0,4780	155,82	150,10	-0,02051	
11,62	-0,4779	155,78	150,10	-0,02036	
11,64	-0,4780	155,80	150,11	-0,02035	
11,66	-0,4780	155,91	150,11	-0,02038	
11,68	-0,4780	155,88	150,11	-0,02047	
11,70	-0,4780	155,81	150,10	-0,02053	
11,72	-0,4780	155,81	150,10	-0,02056	
11,74	-0,4780	155,81	150,10	-0,02054	
11,76	-0,4779	155,79	150,10	-0,02045	
11,78	-0,4779	155,82	150,10	-0,02029	
11,80	-0,4780	155,79	150,10	-0,02027	
11,82	-0,4780	155,73	150,10	-0,02029	
11,84	-0,4780	155,73	150,10	-0,02041	
11,86	-0,4780	155,19	150,10	-0,02058	
11,88	-0,4780	154,20	150,11	-0,02067	
11,90	-0,4780	154,58	150,11	-0,02060	
11,92	-0,4780	154,16	150,10	-0,02042	
11,94	-0,4780	153,05	150,10	-0,02031	
11,96	-0,4780	153,62	150,10	-0,02030	
11,98	-0,4780	154,51	150,09	-0,02039	
12,00	-0,4780	154,80	150,09	-0,02045	
12,02	-0,4780	155,34	150,10	-0,02053	
12,04	-0,4780	155,68	150,10	-0,02064	
12,06	-0,4779	155,77	150,10	-0,02061	
12,08	-0,4780	155,74	150,10	-0,02046	
12,10	-0,4780	155,65	150,10	-0,02032	
12,12	-0,4780	155,67	150,11	-0,02027	
12,14	-0,4780	155,79	150,11	-0,02038	
12,16	-0,4780	155,70	150,11	-0,02046	
12,18	-0,4780	155,58	150,10	-0,02050	
12,20	-0,4780	155,65	150,10	-0,02048	
12,22	-0,4782	155,74	150,10	-0,02050	
12,24	-0,4785	155,76	150,10	-0,02048	
12,26	-0,4786	155,71	150,10	-0,02037	
12,28	-0,4786	155,65	150,10	-0,02033	
12,30	-0,4786	155,67	150,10	-0,02035	
12,32	-0,4786	155,74	150,10	-0,02047	
12,34	-0,4786	155,71	150,11	-0,02061	
12,36	-0,4787	155,70	150,11	-0,02068	
12,38	-0,4787	155,73	150,11	-0,02069	
12,40	-0,4786	155,71	150,10	-0,02057	
12,42	-0,4786	155,70	150,10	-0,02043	
12,44	-0,4786	155,62	150,10	-0,02036	
12,46	-0,4786	154,45	150,10	-0,02037	
12,48	-0,4786	153,05	150,10	-0,02049	
12,50	-0,4786	152,45	150,10	-0,02059	
12,52	-0,4786	152,37	150,10	-0,02062	
12,54	-0,4786	152,45	150,10	-0,02057	
12,56	-0,4786	153,47	150,11	-0,02051	
12,58	-0,4786	154,24	150,11	-0,02038	
12,60	-0,4786	154,95	150,11	-0,02024	
12,62	-0,4787	155,53	150,10	-0,02025	
12,64	-0,4787	155,16	150,10	-0,02037	
12,66	-0,4787	154,22	150,10	-0,02050	
12,68	-0,4786	154,58	150,10	-0,02048	
12,70	-0,4786	154,16	150,10	-0,02046	
12,72	-0,4786	153,07	150,10	-0,02045	
12,74	-0,4787	152,47	150,11	-0,02041	
12,76	-0,4786	152,34	150,11	-0,02037	
12,78	-0,4786	152,87	150,11	-0,02037	
12,80	-0,4786	154,37	150,10	-0,02041	
12,82	-0,4786	155,02	150,10	-0,02049	
12,84	-0,4786	155,05	150,10	-0,02057	
12,86	-0,4787	155,41	150,10	-0,02063	
12,88	-0,4786	155,67	150,10	-0,02056	
12,90	-0,4786	155,69	150,10	-0,02046	
12,92	-0,4787	155,65	150,10	-0,02034	
12,94	-0,4786	155,69	150,10	-0,02031	
12,96	-0,4787	156,16	150,12	-0,02038	
12,98	-0,4788	156,16	150,14	-0,02061	
13,00	-0,4788	149,17	150,13	-0,02096	
13,02	-0,4787	136,28	150,11	-0,02121	
13,04	-0,4787	122,73	150,11	-0,02125	
13,06	-0,4788	109,44	150,11	-0,02114	
13,08	-0,4784	96,32	150,11	-0,02095	
13,10	-0,4774	87,40	150,10	-0,02077	
13,12	-0,4761	83,15	150,10	-0,02077	
13,14	-0,4747	80,09	150,10	-0,02084	
13,16	-0,4734	78,02	150,10	-0,02104	
13,18	-0,4720	77,88	150,10	-0,02117	
13,20	-0,4706	79,53	150,10	-0,02113	
13,22	-0,4690	82,37	150,09	-0,02103	
13,24	-0,4674	85,55	150,10	-0,02091	
13,26	-0,4660	87,71	150,10	-0,02079	
13,28	-0,4648	88,43	150,10	-0,02074	
13,30	-0,4637	88,41	150,10	-0,02088	
13,32	-0,4626	88,32	150,10	-0,02104	
13,34	-0,4613	88,22	150,10	-0,02109	
13,36	-0,4599	87,10	150,10	-0,02109	
13,38	-0,4586	85,72	150,10	-0,02108	
13,40	-0,4572	85,14	150,10	-0,02093	
13,42	-0,4559	85,02	150,09	-0,02082	
13,44	-0,4546	85,02	150,09	-0,02079	
13,46	-0,4532	85,08	150,09	-0,02085	
13,48	-0,4519	85,16	150,09	-0,02099	
13,50	-0,4506	85,20	150,09	-0,02107	
13,52	-0,4492	85,22	150,09	-0,02105	
13,54	-0,4479	85,19	150,09	-0,02103	
13,56	-0,4465	85,15	150,10	-0,02102	
13,58	-0,4452	85,11	150,10	-0,02093	
13,60	-0,4438	85,09	150,10	-0,02090	
13,62	-0,4425	85,14	150,10	-0,02091	
13,64	-0,4412	85,14	150,10	-0,02099	
13,66	-0,4398	85,08	150,11	-0,02110	
13,68	-0,4385	85,08	150,11	-0,02111	
13,70	-0,4371	85,14	150,10	-0,02097	
13,72	-0,4358	85,20	150,10	-0,02088	
13,74	-0,4344	85,19	150,10	-0,02085	
13,76	-0,4331	85,18	150,10	-0,02082	
13,78	-0,4318	85,25	150,09	-0,02086	
13,80	-0,4304	85,30	150,09	-0,02101	
13,82	-0,4291	84,77	150,09	-0,02113	
13,84	-0,4277	83,21	150,09	-0,02108	
13,86	-0,4264	82,11	150,09	-0,02100	
13,88	-0,4250	81,88	150,09	-0,02100	
13,90	-0,4237	82,94	150,09	-0,02092	
13,92	-0,4223	84,30	150,09	-0,02079	
13,94	-0,4209	84,98	150,10	-0,02085	
13,96	-0,4193	84,72	150,10	-0,02106	
13,98	-0,4177	83,24	150,10	-0,02117	
14,00	-0,4163	82,11	150,10	-0,02112	
14,02	-0,4150	81,77	150,11	-0,02103	
14,04	-0,4136	81,75	150,11	-0,02093	
14,06	-0,4123	81,75	150,10	-0,02085	
14,08	-0,4109	81,67	150,10	-0,02083	
14,10	-0,4096	81,62	150,10	-0,02083	
14,12	-0,4082	81,67	150,10	-0,02089	
14,14	-0,4069	81,76	150,10	-0,02094	
14,16	-0,4055	81,79	150,09	-0,02104	
14,18	-0,4040	81,30	150,09	-0,02105	
14,20	-0,4024	79,74	150,09	-0,02095	
14,22	-0,4009	78,60	150,10	-0,02086	
14,24	-0,3995	78,32	150,10	-0,02075	
14,26	-0,3982	78,36	150,10	-0,02071	
14,28	-0,3968	78,41	150,11	-0,02084	
14,30	-0,3955	78,51	150,11	-0,02098	
14,32	-0,3939	78,54	150,10	-0,02101	
14,34	-0,3923	78,52	150,10	-0,02098	
14,36	-0,3908	78,49	150,10	-0,02091	
14,38	-0,3894	78,47	150,10	-0,02078	
14,40	-0,3881	78,42	150,09	-0,02073	
14,42	-0,3865	78,37	150,09	-0,02078	
14,44	-0,3849	78,39	150,09	-0,02089	
14,46	-0,3834	78,35	150,09	-0,02099	
14,48	-0,3821	78,39	150,10	-0,02104	
14,50	-0,3807	78,45	150,09	-0,02105	
14,52	-0,3793	78,49	150,09	-0,02097	
14,54	-0,3776	78,49	150,10	-0,02086	
14,56	-0,3761	78,48	150,10	-0,02075	
14,58	-0,3747	78,46	150,10	-0,02080	
14,60	-0,3733	78,43	150,11	-0,02096	
14,62	-0,3718	78,38	150,11	-0,02112	
14,64	-0,3701	78,38	150,10	-0,02114	
14,66	-0,3687	78,32	150,10	-0,02102	
14,68	-0,3673	77,15	150,10	-0,02088	
14,70	-0,3657	75,69	150,09	-0,02078	
14,72	-0,3641	75,06	150,09	-0,02075	
14,74	-0,3626	74,97	150,09	-0,02079	
14,76	-0,3612	75,01	150,09	-0,02086	
14,78	-0,3595	74,99	150,10	-0,02100	
14,80	-0,3580	74,95	150,10	-0,02103	
14,82	-0,3565	74,95	150,10	-0,02099	
14,84	-0,3550	74,94	150,10	-0,02095	
14,86	-0,3534	74,94	150,10	-0,02088	
14,88	-0,3519	74,94	150,11	-0,02083	
14,90	-0,3503	74,97	150,11	-0,02080	
14,92	-0,3487	75,00	150,10	-0,02083	
14,94	-0,3472	74,99	150,10	-0,02093	
14,96	-0,3457	75,01	150,10	-0,02102	
14,98	-0,3441	75,04	150,10	-0,02100	
15,00	-0,3426	75,02	150,17	-0,02096	
15,02	-0,3411	74,90	151,05	-0,02083	
15,04	-0,3394	73,81	152,90	-0,02074	
15,06	-0,3378	72,40	154,68	-0,02075	
15,08	-0,3364	71,80	156,22	-0,02088	
15,10	-0,3347	71,72	157,92	-0,02099	
15,12	-0,3331	71,67	159,79	-0,02105	
15,14	-0,3315	71,65	161,67	-0,02108	
15,16	-0,3298	71,69	163,19	-0,02094	
15,18	-0,3283	71,74	164,09	-0,02082	
15,20	-0,3266	71,72	164,97	-0,02081	
15,22	-0,3251	71,71	165,99	-0,02086	
15,24	-0,3236	71,78	166,76	-0,02094	
15,26	-0,3219	71,84	167,40	-0,02101	
15,28	-0,3203	71,88	168,50	-0,02104	
15,30	-0,3186	72,96	170,05	-0,02104	
15,32	-0,3170	74,39	171,65	-0,02100	
15,34	-0,3155	75,09	173,11	-0,02091	
15,36	-0,3138	75,19	174,28	-0,02084	
15,38	-0,3123	75,18	175,63	-0,02080	
15,40	-0,3108	75,18	177,15	-0,02083	
15,42	-0,3091	75,16	178,49	-0,02094	
15,44	-0,3076	75,13	179,77	-0,02098	
15,46	-0,3061	75,07	181,09	-0,02093	
15,48	-0,3044	75,11	182,42	-0,02092	
15,50	-0,3029	75,14	183,54	-0,02083	
15,52	-0,3015	75,12	184,54	-0,02076	
15,54	-0,2999	75,13	185,57	-0,02071	
15,56	-0,2983	75,13	186,73	-0,02078	
15,58	-0,2968	75,14	188,06	-0,02094	
15,60	-0,2952	75,18	189,30	-0,02100	
15,62	-0,2936	75,25	190,39	-0,02102	
15,64	-0,2921	75,23	191,48	-0,02092	
15,66	-0,2905	75,13	192,72	-0,02075	
15,68	-0,2889	75,05	193,92	-0,02070	
15,70	-0,2874	75,07	195,04	-0,02073	
15,72	-0,2858	75,16	196,22	-0,02079	
15,74	-0,2842	75,20	197,43	-0,02097	
15,76	-0,2827	75,15	198,58	-0,02113	
15,78	-0,2811	75,09	199,87	-0,02113	
15,80	-0,2795	75,14	201,37	-0,02101	
15,82	-0,2780	74,70	202,96	-0,02087	
15,84	-0,2764	73,20	204,39	-0,02079	
15,86	-0,2748	72,12	205,70	-0,02077	
15,88	-0,2732	71,69	206,99	-0,02081	
15,90	-0,2715	70,56	208,30	-0,02091	
15,92	-0,2700	69,16	209,61	-0,02095	
15,94	-0,2684	68,41	211,00	-0,02099	
15,96	-0,2667	67,20	212,44	-0,02100	
15,98	-0,2650	65,81	213,82	-0,02093	
16,00	-0,2633	65,17	215,15	-0,02083	
16,02	-0,2616	65,11	216,48	-0,02078	
16,04	-0,2599	65,14	217,83	-0,02077	
16,06	-0,2581	65,14	219,22	-0,02081	
16,08	-0,2565	65,13	220,67	-0,02086	
16,10	-0,2547	65,06	222,14	-0,02099	
16,12	-0,2528	65,06	223,56	-0,02107	
16,14	-0,2510	65,14	224,94	-0,02101	
16,16	-0,2492	65,20	226,31	-0,02093	
16,18	-0,2474	64,72	227,70	-0,02086	
16,20	-0,2457	63,18	229,08	-0,02086	
16,22	-0,2440	62,07	230,45	-0,02093	
16,24	-0,2422	61,74	231,82	-0,02098	
16,26	-0,2405	61,70	233,22	-0,02099	
16,28	-0,2387	61,68	234,63	-0,02097	
16,30	-0,2368	61,68	236,07	-0,02091	
16,32	-0,2349	61,71	237,49	-0,02087	
16,34	-0,2330	61,73	238,95	-0,02081	
16,36	-0,2312	61,21	240,43	-0,02081	
16,38	-0,2294	59,70	241,89	-0,02087	
16,40	-0,2275	58,70	243,33	-0,02096	
16,42	-0,2256	59,44	244,74	-0,02099	
16,44	-0,2238	60,92	246,12	-0,02097	
16,46	-0,2219	61,65	247,50	-0,02095	
16,48	-0,2200	62,19	248,84	-0,02085	
16,50	-0,2181	63,62	250,14	-0,02075	
16,52	-0,2163	64,77	251,44	-0,02073	
16,54	-0,2144	65,24	252,68	-0,02076	
16,56	-0,2126	66,35	253,89	-0,02092	
16,58	-0,2109	67,72	255,14	-0,02104	
16,60	-0,2091	68,33	256,42	-0,02100	
16,62	-0,2074	68,40	258,29	-0,02090	
16,64	-0,2057	68,36	261,01	-0,02080	
16,66	-0,2042	68,31	264,14	-0,02074	
16,68	-0,2026	67,25	267,11	-0,02078	
16,70	-0,2008	65,84	269,19	-0,02086	
16,72	-0,1990	65,10	270,73	-0,02089	
16,74	-0,1974	64,94	272,07	-0,02090	
16,76	-0,1957	64,90	273,44	-0,02090	
16,78	-0,1939	63,78	274,82	-0,02087	
16,80	-0,1922	62,42	276,16	-0,02077	
16,82	-0,1905	61,79	277,50	-0,02061	
16,84	-0,1887	61,60	278,87	-0,02060	
16,86	-0,1869	61,56	280,17	-0,02073	
16,88	-0,1850	61,53	281,46	-0,02091	
16,90	-0,1831	61,55	282,86	-0,02100	
16,92	-0,1813	61,62	284,12	-0,02101	
16,94	-0,1796	61,70	285,43	-0,02095	
16,96	-0,1778	61,69	286,91	-0,02076	
16,98	-0,1760	61,69	288,30	-0,02064	
17,00	-0,1742	61,55	289,74	-0,02062	
17,02	-0,1724	60,36	291,19	-0,02067	
17,04	-0,1705	58,92	292,64	-0,02088	
17,06	-0,1686	58,27	294,10	-0,02103	
17,08	-0,1667	58,23	295,57	-0,02101	
17,10	-0,1648	57,84	297,10	-0,02097	
17,12	-0,1630	56,34	298,68	-0,02095	
17,14	-0,1611	55,18	300,19	-0,02090	
17,16	-0,1591	54,89	301,72	-0,02083	
17,18	-0,1571	54,87	303,29	-0,02081	
17,20	-0,1550	54,91	304,84	-0,02090	
17,22	-0,1532	54,92	306,42	-0,02100	
17,24	-0,1513	54,83	307,95	-0,02101	
17,26	-0,1492	53,71	309,53	-0,02103	
17,28	-0,1470	52,22	311,13	-0,02095	
17,30	-0,1449	51,59	312,72	-0,02088	
17,32	-0,1429	51,47	314,31	-0,02085	
17,34	-0,1409	51,51	315,97	-0,02081	
17,36	-0,1390	51,59	317,65	-0,02082	
17,38	-0,1372	51,50	319,30	-0,02094	
17,40	-0,1352	50,39	320,96	-0,02102	
17,42	-0,1330	48,95	322,64	-0,02106	
17,44	-0,1309	48,28	324,31	-0,02097	
17,46	-0,1288	48,20	325,99	-0,02078	
17,48	-0,1268	47,76	327,67	-0,02073	
17,50	-0,1248	46,17	329,37	-0,02078	
17,52	-0,1227	45,39	331,09	-0,02084	
17,54	-0,1205	45,50	332,84	-0,02092	
17,56	-0,1184	45,15	334,59	-0,02101	
17,58	-0,1163	44,78	336,33	-0,02099	
17,60	-0,1141	44,70	338,06	-0,02094	
17,62	-0,1121	44,75	339,83	-0,02085	
17,64	-0,1100	44,80	341,62	-0,02075	
17,66	-0,1078	44,81	343,42	-0,02070	
17,68	-0,1057	44,73	345,24	-0,02077	
17,70	-0,1035	44,68	347,10	-0,02088	
17,72	-0,1013	44,73	348,96	-0,02099	
17,74	-0,09923	44,71	350,86	-0,02101	
17,76	-0,09704	44,60	352,72	-0,02099	
17,78	-0,09480	43,48	354,58	-0,02091	
17,80	-0,09254	42,03	356,47	-0,02084	
17,82	-0,09032	41,37	358,37	-0,02073	
17,84	-0,08808	41,27	360,30	-0,02073	
17,86	-0,08584	41,34	362,28	-0,02088	
17,88	-0,08362	41,40	364,28	-0,02102	
17,90	-0,08138	41,39	366,29	-0,02109	
17,92	-0,07915	41,35	368,31	-0,02105	
17,94	-0,07691	41,31	370,33	-0,02095	
17,96	-0,07465	41,17	372,39	-0,02083	
17,98	-0,07226	39,55	374,37	-0,02076	
18,00	-0,07000	41,17	375,74	-0,02073	
18,02	-0,06785	51,18	376,39	-0,02076	
18,04	-0,06570	65,64	376,69	-0,02078	
18,06	-0,06349	80,40	376,95	-0,02077	
18,08	-0,06159	95,43	377,27	-0,02068	
18,10	-0,06032	108,45	377,77	-0,02058	
18,12	-0,05945	114,57	378,41	-0,02052	
18,14	-0,05864	116,36	379,12	-0,02060	
18,16	-0,05786	116,67	380,01	-0,02065	
18,18	-0,05707	116,84	381,06	-0,02075	
18,20	-0,05647	119,51	381,94	-0,02086	
18,22	-0,05584	123,70	382,75	-0,02096	
18,24	-0,05511	125,90	383,68	-0,02100	
18,26	-0,05445	127,00	384,60	-0,02092	
18,28	-0,05389	128,53	385,40	-0,02077	
18,30	-0,05352	128,35	386,22	-0,02068	
18,32	-0,05303	125,11	387,20	-0,02066	
18,34	-0,05246	121,93	388,21	-0,02073	
18,36	-0,05197	121,52	389,06	-0,02082	
18,38	-0,05162	122,29	389,81	-0,02088	
18,40	-0,05110	121,74	390,73	-0,02092	
18,42	-0,05045	119,28	391,75	-0,02087	
18,44	-0,05000	119,12	392,61	-0,02078	
18,46	-0,04958	119,21	393,43	-0,02073	
18,48	-0,04902	117,81	394,34	-0,02069	
18,50	-0,04836	116,15	395,28	-0,02075	
18,52	-0,04780	116,50	396,13	-0,02084	
18,54	-0,04730	115,89	396,99	-0,02094	
18,56	-0,04670	113,72	397,92	-0,02100	
18,58	-0,04608	112,34	398,84	-0,02097	
18,60	-0,04553	112,95	399,70	-0,02084	
18,62	-0,04510	113,65	400,54	-0,02072	
18,64	-0,04461	112,26	401,48	-0,02068	
18,66	-0,04403	110,96	402,37	-0,02064	
18,68	-0,04355	111,45	403,23	-0,02020	
18,70	-0,04298	110,36	404,18	-0,01965	
18,72	-0,04243	108,18	405,11	-0,01931	
18,74	-0,04195	107,64	405,97	-0,01918	
18,76	-0,04141	107,78	406,83	-0,01909	
18,78	-0,04091	106,75	407,67	-0,01903	
18,80	-0,04033	106,75	408,57	-0,01906	
18,82	-0,03964	107,26	409,54	-0,01903	
18,84	-0,03908	106,99	410,43	-0,01904	
18,86	-0,03859	107,62	411,28	-0,01920	
18,88	-0,03798	107,99	412,17	-0,01929	
18,90	-0,03734	107,79	413,08	-0,01955	
18,92	-0,03668	107,59	413,97	-0,02021	
18,94	-0,03615	107,15	414,84	-0,02061	
18,96	-0,03563	106,03	415,73	-0,02066	
18,98	-0,03500	105,72	416,62	-0,02063	
19,00	-0,03438	106,15	417,53	-0,02071	
19,02	-0,03388	106,41	418,44	-0,02084	
19,04	-0,03333	106,51	419,30	-0,02086	
19,06	-0,03267	106,56	420,18	-0,02088	
19,08	-0,03200	106,48	421,11	-0,02083	
19,10	-0,03145	106,78	422,02	-0,02073	
19,12	-0,03091	107,89	422,88	-0,02068	
19,14	-0,03033	108,66	423,71	-0,02066	
19,16	-0,02966	108,62	424,61	-0,02067	
19,18	-0,02903	108,68	425,50	-0,02071	
19,20	-0,02856	109,54	426,37	-0,02074	
19,22	-0,02807	109,16	427,35	-0,02081	
19,24	-0,02753	108,14	428,27	-0,02080	
19,26	-0,02697	108,84	429,09	-0,02071	
19,28	-0,02635	108,82	429,99	-0,02062	
19,30	-0,02581	107,42	430,87	-0,02055	
19,32	-0,02531	107,84	431,71	-0,02054	
19,34	-0,02476	107,43	432,65	-0,02071	
19,36	-0,02421	105,60	433,57	-0,02082	
19,38	-0,02369	106,31	434,41	-0,02088	
19,40	-0,02316	106,78	435,32	-0,02087	
19,42	-0,02257	105,62	436,21	-0,02074	
19,44	-0,02206	105,07	437,08	-0,02064	
19,46	-0,02153	105,25	437,98	-0,02064	
19,48	-0,02098	104,79	438,83	-0,02077	
19,50	-0,02046	104,92	439,73	-0,02088	
19,52	-0,01983	103,99	440,72	-0,02091	
19,54	-0,01936	103,95	441,57	-0,02093	
19,56	-0,01891	104,86	442,42	-0,02092	
19,58	-0,01840	103,71	443,35	-0,02085	
19,60	-0,01786	102,26	444,23	-0,02067	
19,62	-0,01723	102,74	445,11	-0,02065	
19,64	-0,01667	102,68	446,01	-0,02073	
19,66	-0,01616	102,19	446,85	-0,02077	
19,68	-0,01554	102,95	447,73	-0,02080	
19,70	-0,01491	103,36	448,68	-0,02084	
19,72	-0,01440	103,29	449,57	-0,02079	
19,74	-0,01382	103,08	450,46	-0,02071	
19,76	-0,01316	102,56	451,39	-0,02068	
19,78	-0,01262	101,42	452,31	-0,02072	
19,80	-0,01211	101,87	453,14	-0,02075	
19,82	-0,01156	102,42	453,96	-0,02077	
19,84	-0,01101	102,04	454,90	-0,02083	
19,86	-0,01046	102,30	455,77	-0,02083	
19,88	-0,00986	103,54	456,63	-0,02077	
19,90	-0,00931	102,73	457,56	-0,02067	
19,92	-0,00879	101,52	458,45	-0,02060	
19,94	-0,00823	101,62	459,34	-0,02059	
19,96	-0,00768	101,48	460,26	-0,02064	
19,98	-0,00713	101,67	461,10	-0,02071	
20,00	-0,00650	102,43	461,98	-0,02083	
20,02	-0,00592	101,78	462,91	-0,02085	
20,04	-0,00542	101,50	463,78	-0,02077	
20,06	-0,00485	101,60	464,67	-0,02067	
20,08	-0,00431	100,66	465,59	-0,02064	
20,10	-0,00377	99,37	466,46	-0,02062	
20,12	-0,00324	98,96	467,36	-0,02065	
20,14	-0,00267	98,90	468,25	-0,02077	
20,16	-0,00209	99,31	469,08	-0,02085	
20,18	-0,00141	99,94	470,01	-0,02086	
20,20	-0,00077	99,50	470,94	-0,02078	
20,22	-0,00032	100,25	471,75	-0,02071	
20,24	0,00025	100,77	472,64	-0,02065	
20,26	0,00094	99,10	473,61	-0,02063	
20,28	0,00146	98,31	474,50	-0,02069	
20,30	0,00206	98,27	475,37	-0,02080	
20,32	0,00274	97,47	476,24	-0,02084	
20,34	0,00335	97,30	477,10	-0,02085	
20,36	0,00390	97,89	478,00	-0,02079	
20,38	0,00443	97,40	478,91	-0,02072	
20,40	0,00499	96,78	479,81	-0,02066	
20,42	0,00562	96,97	480,68	-0,02070	
20,44	0,00616	96,40	481,55	-0,02072	
20,46	0,00670	95,76	482,44	-0,02079	
20,48	0,00729	95,91	483,33	-0,02082	
20,50	0,00796	96,07	484,21	-0,02081	
20,52	0,00863	96,34	485,09	-0,02076	
20,54	0,00923	96,46	485,97	-0,02075	
20,56	0,00977	95,66	486,90	-0,02072	
20,58	0,01037	95,15	487,81	-0,02063	
20,60	0,01097	95,40	488,66	-0,02055	
20,62	0,01164	94,97	489,52	-0,02062	
20,64	0,01236	93,35	490,42	-0,02078	
20,66	0,01302	92,22	491,31	-0,02092	
20,68	0,01356	91,88	492,18	-0,02095	
20,70	0,01409	91,92	493,06	-0,02088	
20,72	0,01474	91,90	493,98	-0,02077	
20,74	0,01537	93,38	494,83	-0,02067	
20,76	0,01603	95,81	495,67	-0,02062	
20,78	0,01673	97,03	496,62	-0,02064	
20,80	0,01739	97,77	497,55	-0,02071	
20,82	0,01800	99,21	498,44	-0,02079	
20,84	0,01853	100,01	499,30	-0,02086	
20,86	0,01904	100,54	500,07	-0,02082	
20,88	0,01969	101,31	500,99	-0,02075	
20,90	0,02031	100,16	502,04	-0,02069	
20,92	0,02079	99,54	502,95	-0,02071	
20,94	0,02136	99,75	503,88	-0,02079	
20,96	0,02192	98,63	504,81	-0,02084	
20,98	0,02240	99,51	505,59	-0,02091	
21,00	0,02295	100,45	506,46	-0,02093	
21,02	0,02355	99,05	507,36	-0,02083	
21,04	0,02405	98,46	508,16	-0,02070	
21,06	0,02459	97,73	509,10	-0,02069	
21,08	0,02521	94,72	510,08	-0,02069	
21,10	0,02579	93,57	510,92	-0,02072	
21,12	0,02631	93,84	511,79	-0,02081	
21,14	0,02687	92,21	512,66	-0,02093	
21,16	0,02750	90,50	513,53	-0,02094	
21,18	0,02817	90,17	514,44	-0,02082	
21,20	0,02882	89,91	515,31	-0,02070	
21,22	0,02939	89,90	516,17	-0,02074	
21,24	0,03003	89,46	517,14	-0,02078	
21,26	0,03069	89,48	517,99	-0,02078	
21,28	0,03123	90,45	518,79	-0,02081	
21,30	0,03190	89,02	519,79	-0,02085	
21,32	0,03256	86,46	520,75	-0,02080	
21,34	0,03318	86,43	521,59	-0,02073	
21,36	0,03387	86,13	522,48	-0,02069	
21,38	0,03453	85,04	523,31	-0,02065	
21,40	0,03518	85,97	524,18	-0,02066	
21,42	0,03594	85,84	525,20	-0,02071	
21,44	0,03662	85,32	526,03	-0,02079	
21,46	0,03740	85,87	526,85	-0,02092	
21,48	0,03823	84,62	527,85	-0,02103	
21,50	0,03889	83,03	528,73	-0,02092	
21,52	0,03955	83,61	529,58	-0,02076	
21,54	0,04026	82,80	530,48	-0,02062	
21,56	0,04088	81,37	531,30	-0,02054	
21,58	0,04156	81,21	532,20	-0,02060	
21,60	0,04230	79,98	533,19	-0,02074	
21,62	0,04288	79,57	534,01	-0,02085	
21,64	0,04355	79,58	534,91	-0,02097	
21,66	0,04444	77,79	535,89	-0,02098	
21,68	0,04517	77,96	536,67	-0,02085	
21,70	0,04590	78,51	537,53	-0,02078	
21,72	0,04666	76,37	538,50	-0,02072	
21,74	0,04734	75,58	539,36	-0,02069	
21,76	0,04816	76,37	540,22	-0,02077	
21,78	0,04896	75,21	541,13	-0,02084	
21,80	0,04962	74,30	541,99	-0,02085	
21,82	0,05032	74,40	542,90	-0,02088	
21,84	0,05116	73,93	543,78	-0,02081	
21,86	0,05196	74,65	544,55	-0,02070	
21,88	0,05285	74,68	545,50	-0,02070	
21,90	0,05368	72,55	546,48	-0,02069	
21,92	0,05432	72,28	547,31	-0,02065	
21,94	0,05502	71,95	548,22	-0,02079	
21,96	0,05586	69,41	549,16	-0,02090	
21,98	0,05663	68,30	550,00	-0,02097	
22,00	0,05743	68,33	550,89	-0,02089	
22,02	0,05828	67,50	551,74	-0,02081	
22,04	0,05912	67,45	552,57	-0,02075	
22,06	0,06000	66,37	553,55	-0,02065	
22,08	0,06081	64,69	554,49	-0,02063	
22,10	0,06157	64,83	555,30	-0,02071	
22,12	0,06237	63,56	556,22	-0,02082	
22,14	0,06322	60,51	557,18	-0,02089	
22,16	0,06406	59,11	558,03	-0,02087	
22,18	0,06495	58,58	558,89	-0,02080	
22,20	0,06586	56,76	559,77	-0,02070	
22,22	0,06678	55,38	560,65	-0,02064	
22,24	0,06769	54,43	561,56	-0,02064	
22,26	0,06864	53,94	562,39	-0,02072	
22,28	0,06963	53,49	563,26	-0,02085	
22,30	0,07063	51,44	564,25	-0,02092	
22,32	0,07151	49,96	565,15	-0,02091	
22,34	0,07237	49,68	565,99	-0,02082	
22,36	0,07338	47,89	566,91	-0,02070	
22,38	0,07433	46,86	567,72	-0,02058	
22,40	0,07532	47,45	568,57	-0,02059	
22,42	0,07641	45,39	569,60	-0,02074	
22,44	0,07739	42,83	570,54	-0,02087	
22,46	0,07834	42,18	571,32	-0,02092	
22,48	0,07939	40,99	572,18	-0,02092	
22,50	0,08060	38,15	573,10	-0,02082	
22,52	0,08172	36,75	573,90	-0,02071	
22,54	0,08272	37,31	574,68	-0,02069	
22,56	0,08390	35,38	575,75	-0,02066	
22,58	0,08495	32,49	576,82	-0,02073	
22,60	0,08602	32,00	577,64	-0,02090	
22,62	0,08720	31,02	578,44	-0,02095	
22,64	0,08824	28,77	579,30	-0,02087	
22,66	0,08936	27,23	580,18	-0,02077	
22,68	0,09066	26,34	581,06	-0,02069	
22,70	0,09200	24,26	581,94	-0,02065	
22,72	0,09329	22,11	582,79	-0,02064	
22,74	0,09437	20,32	583,71	-0,02072	
22,76	0,09545	19,40	584,62	-0,02085	
22,78	0,09671	18,75	585,49	-0,02091	
22,80	0,09806	17,24	586,37	-0,02089	
22,82	0,09940	15,70	587,28	-0,02081	
22,84	0,1008	13,84	588,16	-0,02071	
22,86	0,1021	12,38	589,02	-0,02067	
22,88	0,1034	10,48	589,89	-0,02071	
22,90	0,1048	9,117	590,79	-0,02074	
22,92	0,1061	7,996	591,68	-0,02083	
22,94	0,1075	6,245	592,58	-0,02094	
22,96	0,1089	4,271	593,46	-0,02093	
22,98	0,1105	3,020	594,36	-0,02086	
23,00	0,1121	1,501	595,27	-0,02075	
23,02	0,1135	-0,6558	596,11	-0,02070	
23,04	0,1148	-2,444	596,94	-0,02070	
23,06	0,1164	-4,606	597,97	-0,02076	
23,08	0,1181	-5,976	598,94	-0,02087	
23,10	0,1195	-5,523	599,71	-0,02101	
23,12	0,1210	-5,909	600,60	-0,02104	
23,14	0,1226	-8,178	601,57	-0,02094	
23,16	0,1242	-9,450	602,42	-0,02080	
23,18	0,1258	-8,900	603,20	-0,02068	
23,20	0,1274	-10,12	604,13	-0,02067	
23,22	0,1289	-11,88	605,14	-0,02077	
23,24	0,1305	-11,66	605,98	-0,02083	
23,26	0,1321	-11,39	606,83	-0,02086	
23,28	0,1337	-12,07	607,76	-0,02087	
23,30	0,1354	-12,11	608,66	-0,02089	
23,32	0,1369	-10,88	609,47	-0,02086	
23,34	0,1384	-10,22	610,36	-0,02080	
23,36	0,1401	-10,31	611,38	-0,02068	
23,38	0,1416	-9,073	612,27	-0,02058	
23,40	0,1431	-7,575	613,10	-0,02068	
23,42	0,1448	-6,898	614,00	-0,02082	
23,44	0,1463	-5,613	614,89	-0,02091	
23,46	0,1477	-2,750	615,78	-0,02089	
23,48	0,1493	0,2325	616,69	-0,02082	
23,50	0,1509	2,758	617,58	-0,02072	
23,52	0,1524	5,626	618,43	-0,02065	
23,54	0,1538	7,713	619,37	-0,02065	
23,56	0,1552	9,737	620,28	-0,02072	
23,58	0,1564	14,13	621,04	-0,02086	
23,60	0,1578	18,23	621,94	-0,02093	
23,62	0,1592	19,02	623,03	-0,02094	
23,64	0,1605	21,45	623,93	-0,02088	
23,66	0,1618	25,94	624,71	-0,02081	
23,68	0,1632	28,17	625,61	-0,02073	
23,70	0,1645	29,20	626,55	-0,02066	
23,72	0,1656	32,89	627,35	-0,02069	
23,74	0,1667	36,46	628,21	-0,02082	
23,76	0,1680	37,35	629,21	-0,02093	
23,78	0,1690	40,57	630,03	-0,02090	
23,80	0,1700	45,20	630,88	-0,02088	
23,82	0,1713	46,31	631,92	-0,02085	
23,84	0,1722	47,65	632,81	-0,02076	
23,86	0,1732	50,97	633,64	-0,02067	
23,88	0,1742	52,37	634,54	-0,02071	
23,90	0,1752	52,57	635,42	-0,02083	
23,92	0,1762	54,91	636,33	-0,02093	
23,94	0,1771	57,51	637,22	-0,02097	
23,96	0,1781	58,89	638,05	-0,02091	
23,98	0,1791	60,03	638,95	-0,02083	
24,00	0,1801	61,04	639,87	-0,02076	
24,02	0,1809	62,79	640,70	-0,02071	
24,04	0,1818	64,13	641,62	-0,02067	
24,06	0,1828	64,14	642,55	-0,02077	
24,08	0,1835	65,50	643,38	-0,02088	
24,10	0,1844	67,08	644,29	-0,02099	
24,12	0,1852	66,83	645,17	-0,02101	
24,14	0,1860	67,51	645,97	-0,02092	
24,16	0,1870	67,54	646,95	-0,02081	
24,18	0,1879	66,58	647,91	-0,02070	
24,20	0,1886	67,34	648,75	-0,02067	
24,22	0,1894	67,68	649,64	-0,02076	
24,24	0,1903	66,86	650,53	-0,02087	
24,26	0,1912	67,41	651,38	-0,02094	
24,28	0,1920	68,16	652,29	-0,02090	
24,30	0,1928	67,87	653,10	-0,02080	
24,32	0,1936	68,24	653,94	-0,02072	
24,34	0,1945	67,24	654,98	-0,02064	
24,36	0,1953	66,15	655,90	-0,02060	
24,38	0,1961	67,12	656,74	-0,02070	
24,40	0,1970	66,53	657,68	-0,02083	
24,42	0,1978	64,36	658,52	-0,02089	
24,44	0,1986	64,09	659,34	-0,02092	
24,46	0,1994	63,11	660,29	-0,02094	
24,48	0,2002	61,89	661,17	-0,02085	
24,50	0,2011	62,55	662,04	-0,02075	
24,52	0,2020	61,95	663,00	-0,02068	
24,54	0,2029	60,92	663,82	-0,02070	
24,56	0,2037	61,12	664,67	-0,02082	
24,58	0,2047	59,95	665,66	-0,02092	
24,60	0,2056	59,28	666,51	-0,02093	
24,62	0,2064	59,83	667,34	-0,02086	
24,64	0,2072	58,26	668,30	-0,02071	
24,66	0,2082	56,58	669,18	-0,02063	
24,68	0,2091	56,50	670,06	-0,02071	
24,70	0,2099	55,90	670,98	-0,02085	
24,72	0,2108	55,47	671,81	-0,02093	
24,74	0,2118	55,56	672,70	-0,02097	
24,76	0,2128	54,33	673,67	-0,02090	
24,78	0,2136	53,75	674,52	-0,02075	
24,80	0,2145	53,82	675,37	-0,02069	
24,82	0,2156	52,22	676,27	-0,02072	
24,84	0,2165	52,09	677,09	-0,02071	
24,86	0,2174	52,51	678,03	-0,02077	
24,88	0,2184	50,56	679,00	-0,02090	
24,90	0,2194	49,39	679,83	-0,02095	
24,92	0,2204	49,56	680,73	-0,02097	
24,94	0,2214	48,42	681,65	-0,02088	
24,96	0,2224	48,40	682,45	-0,02076	
24,98	0,2234	49,07	683,34	-0,02071	
25,00	0,2244	47,69	684,31	-0,02070	
25,02	0,2254	47,54	685,18	-0,02079	
25,04	0,2263	47,49	686,05	-0,02094	
25,06	0,2273	45,96	686,95	-0,02102	
25,08	0,2283	45,47	687,81	-0,02102	
25,10	0,2292	45,28	688,70	-0,02091	
25,12	0,2303	43,69	689,57	-0,02074	
25,14	0,2314	43,81	690,41	-0,02065	
25,16	0,2325	42,96	691,39	-0,02064	
25,18	0,2335	41,31	692,33	-0,02072	
25,20	0,2345	41,33	693,15	-0,02089	
25,22	0,2357	40,68	694,06	-0,02099	
25,24	0,2368	39,06	694,97	-0,02096	
25,26	0,2379	39,20	695,82	-0,02089	
25,28	0,2390	39,56	696,70	-0,02085	
25,30	0,2400	38,49	697,56	-0,02077	
25,32	0,2411	37,43	698,42	-0,02069	
25,34	0,2423	36,57	699,34	-0,02076	
25,36	0,2434	36,04	700,25	-0,02089	
25,38	0,2444	35,84	701,14	-0,02100	
25,40	0,2457	35,52	702,04	-0,02105	
25,42	0,2467	35,18	702,91	-0,02098	
25,44	0,2478	35,41	703,79	-0,02082	
25,46	0,2491	35,27	704,69	-0,02068	
25,48	0,2502	34,99	705,53	-0,02069	
25,50	0,2513	34,72	706,42	-0,02085	
25,52	0,2525	33,57	707,40	-0,02093	
25,54	0,2538	33,25	708,29	-0,02092	
25,56	0,2549	33,97	709,12	-0,02091	
25,58	0,2560	32,92	710,04	-0,02085	
25,60	0,2572	31,52	710,94	-0,02076	
25,62	0,2585	32,08	711,78	-0,02074	
25,64	0,2596	32,27	712,62	-0,02074	
25,66	0,2607	31,14	713,52	-0,02072	
25,68	0,2619	30,28	714,46	-0,02079	
25,70	0,2632	29,58	715,35	-0,02092	
25,72	0,2643	29,39	716,21	-0,02096	
25,74	0,2654	28,25	717,11	-0,02090	
25,76	0,2666	26,52	718,01	-0,02080	
25,78	0,2679	26,56	718,86	-0,02071	
25,80	0,2692	26,47	719,75	-0,02063	
25,82	0,2704	25,28	720,66	-0,02064	
25,84	0,2714	25,19	721,52	-0,02075	
25,86	0,2726	25,28	722,40	-0,02091	
25,88	0,2740	23,99	723,35	-0,02096	
25,90	0,2753	22,78	724,29	-0,02090	
25,92	0,2764	24,16	725,11	-0,02080	
25,94	0,2775	25,72	725,98	-0,02070	
25,96	0,2787	25,76	726,96	-0,02062	
25,98	0,2800	27,80	727,81	-0,02067	
26,00	0,2813	31,14	728,67	-0,02078	
26,02	0,2825	32,37	729,68	-0,02085	
26,04	0,2835	34,03	730,59	-0,02093	
26,06	0,2847	36,93	731,45	-0,02094	
26,08	0,2860	38,75	732,32	-0,02092	
26,10	0,2870	40,17	733,22	-0,02085	
26,12	0,2881	42,69	734,10	-0,02077	
26,14	0,2892	44,92	735,00	-0,02076	
26,16	0,2903	46,96	735,88	-0,02078	
26,18	0,2914	49,62	736,72	-0,02087	
26,20	0,2924	51,84	737,62	-0,02096	
26,22	0,2935	52,70	738,55	-0,02096	
26,24	0,2944	53,78	739,41	-0,02089	
26,26	0,2953	54,68	740,27	-0,02075	
26,28	0,2963	54,98	741,21	-0,02062	
26,30	0,2971	55,65	742,11	-0,02058	
26,32	0,2980	56,55	742,94	-0,02068	
26,34	0,2989	57,02	743,83	-0,02087	
26,36	0,2998	57,17	744,75	-0,02096	
26,38	0,3007	58,28	745,57	-0,02098	
26,40	0,3016	58,92	746,46	-0,02094	
26,42	0,3026	58,46	747,45	-0,02084	
26,44	0,3035	59,45	748,25	-0,02074	
26,46	0,3044	61,01	749,10	-0,02068	
26,48	0,3055	59,26	750,26	-0,02073	
26,50	0,3063	58,59	751,13	-0,02083	
26,52	0,3072	60,66	751,91	-0,02094	
26,54	0,3081	60,84	752,86	-0,02096	
26,56	0,3090	60,71	753,64	-0,02096	
26,58	0,3098	61,76	754,51	-0,02090	
26,60	0,3108	60,30	755,60	-0,02080	
26,62	0,3116	59,99	756,39	-0,02070	
26,64	0,3125	61,39	757,26	-0,02071	
26,66	0,3135	60,27	758,26	-0,02082	
26,68	0,3143	61,03	758,93	-0,02089	
26,70	0,3151	63,60	759,84	-0,02089	
26,72	0,3161	61,03	761,12	-0,02087	
26,74	0,3168	59,46	762,00	-0,02080	
26,76	0,3175	61,16	762,61	-0,02074	
26,78	0,3185	59,66	763,43	-0,02070	
26,80	0,3195	57,27	764,34	-0,02075	
26,82	0,3203	59,90	765,08	-0,02081	
26,84	0,3211	61,67	765,97	-0,02091	
26,86	0,3220	59,58	767,13	-0,02096	
26,88	0,3228	60,24	767,95	-0,02088	
26,90	0,3237	62,79	768,75	-0,02085	
26,92	0,3247	61,04	769,97	-0,02076	
26,94	0,3255	60,00	770,89	-0,02065	
26,96	0,3263	61,43	771,60	-0,02066	
26,98	0,3271	61,18	772,39	-0,02077	
27,00	0,3279	60,75	773,11	-0,02090	
27,02	0,3288	61,66	774,04	-0,02096	
27,04	0,3297	60,32	775,19	-0,02093	
27,06	0,3305	59,99	775,99	-0,02081	
27,08	0,3313	61,35	776,84	-0,02063	
27,10	0,3321	60,41	777,81	-0,02056	
27,12	0,3330	60,78	778,51	-0,02062	
27,14	0,3339	62,52	779,50	-0,02075	
27,16	0,3348	60,82	780,64	-0,02084	
27,18	0,3356	61,11	781,35	-0,02091	
27,20	0,3363	62,89	782,21	-0,02096	
27,22	0,3372	61,56	783,16	-0,02088	
27,24	0,3380	62,65	783,89	-0,02074	
27,26	0,3388	63,93	784,89	-0,02072	
27,28	0,3397	62,55	785,84	-0,02067	
27,30	0,3404	63,47	786,51	-0,02066	
27,32	0,3414	64,19	787,61	-0,02080	
27,34	0,3421	62,85	788,73	-0,02090	
27,36	0,3427	64,74	789,42	-0,02091	
27,38	0,3435	65,66	790,22	-0,02087	
27,40	0,3443	63,67	791,06	-0,02075	
27,42	0,3450	64,51	791,87	-0,02070	
27,44	0,3458	65,97	792,87	-0,02062	
27,46	0,3464	65,54	793,59	-0,02064	
27,48	0,3471	67,36	794,28	-0,02083	
27,50	0,3481	66,95	795,69	-0,02095	
27,52	0,3489	64,65	797,00	-0,02098	
27,54	0,3494	66,88	797,47	-0,02088	
27,56	0,3500	69,92	797,91	-0,02076	
27,58	0,3509	67,52	799,09	-0,02067	
27,60	0,3517	66,49	800,28	-0,02057	
27,62	0,3522	71,10	800,95	-0,02060	
27,64	0,3528	70,40	801,89	-0,02079	
27,66	0,3535	67,55	802,72	-0,02091	
27,68	0,3541	70,86	803,26	-0,02092	
27,70	0,3548	72,65	804,47	-0,02093	
27,72	0,3555	68,02	805,93	-0,02085	
27,74	0,3559	68,39	806,52	-0,02068	
27,76	0,3564	71,66	806,86	-0,02067	
27,78	0,3570	69,06	807,95	-0,02071	
27,80	0,3577	65,98	809,11	-0,02077	
27,82	0,3580	70,32	809,62	-0,02088	
27,84	0,3585	72,47	810,52	-0,02094	
27,86	0,3593	68,44	812,05	-0,02090	
27,88	0,3599	68,11	812,95	-0,02078	
27,90	0,3603	71,94	813,26	-0,02067	
27,92	0,3607	71,13	814,00	-0,02064	
27,94	0,3614	66,61	815,31	-0,02066	
27,96	0,3618	68,96	816,14	-0,02071	
27,98	0,3621	72,56	816,88	-0,02084	
28,00	0,3627	69,29	818,07	-0,02094	
28,02	0,3632	68,85	818,86	-0,02091	
28,04	0,3637	72,34	819,61	-0,02082	
28,06	0,3642	71,54	820,56	-0,02070	
28,08	0,3646	71,55	821,08	-0,02063	
28,10	0,3649	74,36	821,89	-0,02071	
28,12	0,3656	72,50	823,49	-0,02084	
28,14	0,3660	69,74	824,61	-0,02090	
28,16	0,3663	73,12	824,81	-0,02094	
28,18	0,3668	74,92	825,36	-0,02094	
28,20	0,3674	70,64	826,95	-0,02091	
28,22	0,3678	69,61	828,30	-0,02082	
28,24	0,3681	73,68	828,79	-0,02070	
28,26	0,3684	74,04	829,32	-0,02063	
28,28	0,3690	71,23	830,21	-0,02074	
28,30	0,3695	71,88	831,02	-0,02090	
28,32	0,3698	73,94	831,88	-0,02097	
28,34	0,3702	71,60	832,88	-0,02085	
28,36	0,3705	70,47	833,61	-0,02084	
28,38	0,3708	71,73	834,33	-0,02082	
28,40	0,3712	70,35	835,57	-0,02074	
28,42	0,3716	68,48	836,60	-0,02068	
28,44	0,3719	70,80	837,23	-0,02078	
28,46	0,3723	69,68	838,46	-0,02094	
28,48	0,3727	66,38	839,68	-0,02098	
28,50	0,3731	67,08	840,35	-0,02089	
28,52	0,3735	68,10	840,99	-0,02079	
28,54	0,3738	65,82	841,65	-0,02071	
28,56	0,3742	64,89	842,48	-0,02069	
28,58	0,3747	63,44	843,61	-0,02070	
28,60	0,3750	62,05	844,27	-0,02077	
28,62	0,3752	64,18	844,91	-0,02092	
28,64	0,3758	62,29	846,51	-0,02101	
28,66	0,3763	57,32	847,97	-0,02094	
28,68	0,3765	57,84	848,23	-0,02080	
28,70	0,3768	60,65	848,25	-0,02071	
28,72	0,3773	57,00	849,43	-0,02070	
28,74	0,3780	52,87	851,02	-0,02066	
28,76	0,3783	55,31	851,47	-0,02061	
28,78	0,3786	59,65	850,88	-0,02065	
28,80	0,3788	63,76	850,03	-0,02073	
28,82	0,3793	68,98	849,76	-0,02077	
28,84	0,3799	74,17	849,84	-0,02068	
28,86	0,3801	79,63	849,62	-0,02051	
28,88	0,3804	80,43	849,71	-0,02054	
28,90	0,3808	77,24	850,06	-0,02062	
28,92	0,3810	78,19	849,90	-0,02069	
28,94	0,3813	83,25	849,68	-0,02085	
28,96	0,3817	82,90	849,87	-0,02094	
28,98	0,3819	83,62	849,81	-0,02081	
29,00	0,3821	90,25	849,60	-0,02068	
29,02	0,3824	90,61	849,89	-0,02063	
29,04	0,3827	87,44	850,03	-0,02059	
29,06	0,3828	91,41	849,72	-0,02054	
29,08	0,3830	93,22	849,78	-0,02059	
29,10	0,3833	89,67	849,96	-0,02071	
29,12	0,3835	91,94	849,72	-0,02081	
29,14	0,3837	95,30	849,72	-0,02095	
29,16	0,3839	92,52	849,96	-0,02089	
29,18	0,3840	92,93	849,77	-0,02072	
29,20	0,3843	96,98	849,69	-0,02065	
29,22	0,3846	94,68	849,98	-0,02063	
29,24	0,3848	93,16	849,89	-0,02063	
29,26	0,3849	97,51	849,65	-0,02074	
29,28	0,3852	96,61	849,85	-0,02086	
29,30	0,3855	93,83	849,86	-0,02086	
29,32	0,3856	97,57	849,63	-0,02081	
29,34	0,3858	98,20	849,82	-0,02080	
29,36	0,3860	95,73	849,92	-0,02065	
29,38	0,3861	99,10	849,65	-0,02054	
29,40	0,3864	100,70	849,78	-0,02060	
29,42	0,3867	97,05	850,01	-0,02076	
29,44	0,3868	98,95	849,77	-0,02085	
29,46	0,3870	102,20	849,69	-0,02089	
29,48	0,3872	98,74	849,88	-0,02079	
29,50	0,3874	98,95	849,71	-0,02060	
29,52	0,3876	103,59	849,62	-0,02055	
29,54	0,3879	101,54	849,96	-0,02057	
29,56	0,3881	99,86	849,94	-0,02062	
29,58	0,3883	104,53	849,67	-0,02074	
29,60	0,3885	104,29	849,77	-0,02082	
29,62	0,3887	101,09	849,77	-0,02076	
29,64	0,3888	104,65	849,55	-0,02066	
29,66	0,3891	105,66	849,84	-0,02060	
29,68	0,3893	102,51	850,07	-0,02052	
29,70	0,3894	105,00	849,78	-0,02048	
29,72	0,3897	107,15	849,70	-0,02061	
29,74	0,3899	103,36	849,86	-0,02076	
29,76	0,3898	103,76	849,66	-0,02073	
29,78	0,3901	106,85	849,65	-0,02073	
29,80	0,3905	104,27	849,99	-0,02072	
29,82	0,3905	103,67	849,90	-0,02058	
29,84	0,3904	108,33	849,66	-0,02054	
29,86	0,3907	106,56	849,89	-0,02056	
29,88	0,3910	103,93	849,92	-0,02055	
29,90	0,3910	108,18	849,64	-0,02067	
29,92	0,3912	107,84	849,81	-0,02085	
29,94	0,3916	103,37	849,99	-0,02087	
29,96	0,3916	106,05	849,71	-0,02078	
29,98	0,3917	108,72	849,72	-0,02074	
30,00	0,3919	105,23	849,97	-0,02065	
30,02	0,3921	106,19	849,78	-0,02052	
30,04	0,3923	110,06	849,70	-0,02053	
30,06	0,3925	107,67	850,00	-0,02064	
30,08	0,3925	106,39	849,90	-0,02074	
30,10	0,3927	110,28	849,65	-0,02085	
30,12	0,3931	108,82	849,83	-0,02090	
30,14	0,3932	106,06	849,83	-0,02077	
30,16	0,3931	108,98	849,60	-0,02064	
30,18	0,3934	108,76	849,80	-0,02062	
30,20	0,3937	105,92	849,92	-0,02057	
30,22	0,3937	109,16	849,65	-0,02053	
30,24	0,3938	110,87	849,77	-0,02067	
30,26	0,3941	107,16	850,00	-0,02080	
30,28	0,3943	108,59	849,77	-0,02079	
30,30	0,3945	111,40	849,67	-0,02075	
30,32	0,3946	108,25	849,90	-0,02066	
30,34	0,3947	108,06	849,78	-0,02047	
30,36	0,3949	112,23	849,61	-0,02048	
30,38	0,3952	109,77	849,90	-0,02068	
30,40	0,3953	107,16	849,92	-0,02080	
30,42	0,3952	111,38	849,65	-0,02079	
30,44	0,3955	111,06	849,82	-0,02078	
30,46	0,3958	107,40	849,93	-0,02069	
30,48	0,3958	110,77	849,66	-0,02056	
30,50	0,3959	112,92	849,74	-0,02053	
30,52	0,3963	109,71	849,94	-0,02054	
30,54	0,3964	111,10	849,70	-0,02061	
30,56	0,3965	113,14	849,69	-0,02073	
30,58	0,3966	109,04	850,00	-0,02083	
30,60	0,3967	108,27	849,86	-0,02075	
30,62	0,3969	112,98	849,64	-0,02071	
30,64	0,3972	111,51	849,93	-0,02072	
30,66	0,3973	109,55	849,97	-0,02064	
30,68	0,3971	113,24	849,66	-0,02062	
30,70	0,3974	113,36	849,76	-0,02062	
30,72	0,3978	109,56	849,89	-0,02064	
30,74	0,3977	111,83	849,64	-0,02071	
30,76	0,3978	113,90	849,72	-0,02084	
30,78	0,3981	110,30	849,97	-0,02086	
30,80	0,3983	110,72	849,78	-0,02072	
30,82	0,3984	113,74	849,67	-0,02058	
30,84	0,3986	111,16	849,88	-0,02058	
30,86	0,3985	110,53	849,73	-0,02065	
30,88	0,3986	114,14	849,60	-0,02074	
30,90	0,3990	111,68	849,95	-0,02081	
30,92	0,3992	108,89	850,01	-0,02071	
30,94	0,3991	112,57	849,69	-0,02061	
30,96	0,3993	112,92	849,75	-0,02057	
30,98	0,3996	108,85	849,84	-0,02056	
31,00	0,3997	111,08	849,60	-0,02057	
31,02	0,3999	112,37	849,73	-0,02061	
31,04	0,4000	108,45	850,04	-0,02072	
31,06	0,4000	109,46	849,83	-0,02080	
31,08	0,4003	113,50	849,65	-0,02083	
31,10	0,4006	110,57	849,90	-0,02076	
31,12	0,4006	108,93	849,87	-0,02064	
31,14	0,4004	113,44	849,62	-0,02060	
31,16	0,4007	112,19	849,86	-0,02059	
31,18	0,4011	108,55	850,01	-0,02054	
31,20	0,4011	112,41	849,71	-0,02055	
31,22	0,4012	114,01	849,77	-0,02072	
31,24	0,4014	109,99	850,06	-0,02081	
31,26	0,4015	110,96	849,86	-0,02079	
31,28	0,4017	114,25	849,69	-0,02080	
31,30	0,4019	111,36	849,96	-0,02077	
31,32	0,4019	109,75	849,91	-0,02063	
31,34	0,4018	113,76	849,65	-0,02064	
31,36	0,4021	112,44	849,85	-0,02078	
31,38	0,4024	109,46	849,91	-0,02092	
31,40	0,4024	112,64	849,65	-0,02086	
31,42	0,4026	113,00	849,78	-0,02082	
31,44	0,4028	109,41	849,91	-0,02075	
31,46	0,4030	111,74	849,65	-0,02059	
31,48	0,4032	113,92	849,71	-0,02054	
31,50	0,4033	110,55	849,97	-0,02056	
31,52	0,4032	112,20	849,78	-0,02065	
31,54	0,4032	115,72	849,66	-0,02079	
31,56	0,4036	112,09	849,87	-0,02086	
31,58	0,4038	110,48	849,77	-0,02081	
31,60	0,4038	114,25	849,59	-0,02080	
31,62	0,4039	112,53	849,87	-0,02076	
31,64	0,4041	110,19	849,91	-0,02059	
31,66	0,4043	114,66	849,62	-0,02050	
31,68	0,4045	114,59	849,80	-0,02061	
31,70	0,4047	110,13	849,99	-0,02076	
31,72	0,4045	112,37	849,73	-0,02082	
31,74	0,4046	114,25	849,71	-0,02082	
31,76	0,4050	110,24	849,92	-0,02070	
31,78	0,4051	110,38	849,73	-0,02054	
31,80	0,4051	113,57	849,65	-0,02052	
31,82	0,4053	110,98	849,97	-0,02056	
31,84	0,4054	109,51	849,91	-0,02063	
31,86	0,4056	113,59	849,66	-0,02079	
31,88	0,4059	112,39	849,86	-0,02091	
31,90	0,4060	109,48	849,91	-0,02083	
31,92	0,4058	112,75	849,63	-0,02074	
31,94	0,4060	113,12	849,78	-0,02077	
31,96	0,4063	109,42	849,96	-0,02062	
31,98	0,4064	111,62	849,70	-0,02053	
32,00	0,4065	113,84	849,71	-0,02063	
32,02	0,4067	109,56	849,97	-0,02077	
32,04	0,4066	109,58	849,78	-0,02084	
32,06	0,4067	113,27	849,65	-0,02093	
32,08	0,4071	110,47	849,94	-0,02092	
32,10	0,4073	108,70	849,89	-0,02078	
32,12	0,4072	112,17	849,68	-0,02067	
32,14	0,4074	110,92	849,84	-0,02057	
32,16	0,4076	108,77	849,78	-0,02056	
32,18	0,4077	111,97	849,58	-0,02070	
32,20	0,4080	111,29	849,86	-0,02082	
32,22	0,4080	108,05	849,99	-0,02084	
32,24	0,4080	110,90	849,69	-0,02084	
32,26	0,4084	112,00	849,76	-0,02081	
32,28	0,4086	107,74	849,99	-0,02062	
32,30	0,4085	109,50	849,75	-0,02046	
32,32	0,4085	112,64	849,69	-0,02052	
32,34	0,4088	109,02	849,95	-0,02064	
32,36	0,4091	108,69	849,81	-0,02074	
32,38	0,4091	113,41	849,63	-0,02089	
32,40	0,4093	111,61	849,91	-0,02088	
32,42	0,4093	109,37	849,92	-0,02071	
32,44	0,4093	113,05	849,63	-0,02062	
32,46	0,4097	113,26	849,80	-0,02065	
32,48	0,4100	109,67	849,94	-0,02062	
32,50	0,4099	112,33	849,67	-0,02065	
32,52	0,4099	114,31	849,73	-0,02079	
32,54	0,4102	110,38	850,00	-0,02080	
32,56	0,4104	110,41	849,80	-0,02075	
32,58	0,4105	113,68	849,66	-0,02076	
32,60	0,4107	111,16	849,92	-0,02079	
32,62	0,4107	110,11	849,85	-0,02072	
32,64	0,4108	114,29	849,61	-0,02065	
32,66	0,4112	112,64	849,89	-0,02073	
32,68	0,4114	109,28	850,00	-0,02077	
32,70	0,4112	112,75	849,70	-0,02075	
32,72	0,4113	113,86	849,83	-0,02081	
32,74	0,4115	110,01	850,00	-0,02075	
32,76	0,4117	111,77	849,73	-0,02064	
32,78	0,4119	113,86	849,72	-0,02066	
32,80	0,4121	110,19	849,94	-0,02067	
32,82	0,4119	110,42	849,75	-0,02068	
32,84	0,4120	113,49	849,69	-0,02086	
32,86	0,4124	110,99	849,98	-0,02100	
32,88	0,4126	110,13	849,86	-0,02094	
32,90	0,4126	114,22	849,65	-0,02089	
32,92	0,4127	112,56	849,93	-0,02085	
32,94	0,4129	110,18	849,98	-0,02071	
32,96	0,4130	113,91	849,70	-0,02060	
32,98	0,4133	113,74	849,80	-0,02065	
33,00	0,4134	109,89	849,87	-0,02079	
33,02	0,4132	112,90	849,61	-0,02087	
33,04	0,4134	114,75	849,78	-0,02091	
33,06	0,4137	110,83	850,02	-0,02082	
33,08	0,4138	112,18	849,78	-0,02068	
33,10	0,4139	115,07	849,68	-0,02064	
33,12	0,4141	111,74	849,84	-0,02069	
33,14	0,4140	112,04	849,66	-0,02071	
33,16	0,4143	115,30	849,64	-0,02084	
33,18	0,4146	112,20	849,98	-0,02096	
33,20	0,4147	111,14	849,90	-0,02095	
33,22	0,4145	114,74	849,66	-0,02092	
33,24	0,4147	112,74	849,84	-0,02088	
33,26	0,4150	110,29	849,86	-0,02074	
33,28	0,4151	114,53	849,62	-0,02067	
33,30	0,4153	114,49	849,79	-0,02071	
33,32	0,4154	110,79	849,89	-0,02080	
33,34	0,4152	114,03	849,62	-0,02092	
33,36	0,4155	116,38	849,77	-0,02101	
33,38	0,4159	113,20	850,06	-0,02092	
33,40	0,4159	114,34	849,82	-0,02079	
33,42	0,4159	117,68	849,68	-0,02077	
33,44	0,4161	114,22	850,02	-0,02080	
33,46	0,4162	112,24	849,98	-0,02083	
33,48	0,4163	116,71	849,68	-0,02094	
33,50	0,4166	115,62	849,87	-0,02109	
33,52	0,4167	111,36	849,95	-0,02108	
33,54	0,4166	114,61	849,66	-0,02095	
33,56	0,4167	116,13	849,78	-0,02086	
33,58	0,4171	112,86	849,97	-0,02080	
33,60	0,4171	114,92	849,72	-0,02078	
33,62	0,4173	117,36	849,71	-0,02087	
33,64	0,4174	113,89	849,95	-0,02097	
33,66	0,4173	114,16	849,77	-0,02094	
33,68	0,4176	117,98	849,64	-0,02091	
33,70	0,4180	115,20	849,93	-0,02091	
33,72	0,4180	113,68	849,88	-0,02085	
33,74	0,4179	117,66	849,63	-0,02081	
33,76	0,4181	116,09	849,85	-0,02080	
33,78	0,4184	112,76	849,93	-0,02080	
33,80	0,4185	115,86	849,65	-0,02090	
33,82	0,4186	116,50	849,78	-0,02112	
33,84	0,4187	112,90	849,97	-0,02115	
33,86	0,4186	114,93	849,71	-0,02096	
33,88	0,4186	117,35	849,69	-0,02090	
33,90	0,4191	113,67	849,99	-0,02083	
33,92	0,4192	113,57	849,86	-0,02071	
33,94	0,4193	117,03	849,65	-0,02081	
33,96	0,4194	114,67	849,82	-0,02102	
33,98	0,4194	113,04	849,75	-0,02105	
34,00	0,4196	116,95	849,58	-0,02103	
34,02	0,4200	115,78	849,91	-0,02103	
34,04	0,4201	112,61	850,04	-0,02091	
34,06	0,4199	116,02	849,72	-0,02075	
34,08	0,4200	117,35	849,80	-0,02074	
34,10	0,4203	113,34	850,04	-0,02083	
34,12	0,4204	114,78	849,80	-0,02096	
34,14	0,4206	117,34	849,68	-0,02105	
34,16	0,4208	113,53	849,91	-0,02109	
34,18	0,4207	112,86	849,78	-0,02098	
34,20	0,4206	117,19	849,63	-0,02091	
34,22	0,4209	115,30	849,94	-0,02087	
34,24	0,4212	113,15	849,96	-0,02071	
34,26	0,4212	117,46	849,68	-0,02061	
34,28	0,4214	117,19	849,80	-0,02074	
34,30	0,4214	113,84	849,83	-0,02092	
34,32	0,4214	117,00	849,59	-0,02098	
34,34	0,4218	117,93	849,83	-0,02103	
34,36	0,4221	114,37	850,07	-0,02098	
34,38	0,4220	116,66	849,80	-0,02087	
34,40	0,4220	119,16	849,70	-0,02084	
34,42	0,4222	115,47	849,89	-0,02081	
34,44	0,4223	115,97	849,71	-0,02085	
34,46	0,4225	119,99	849,62	-0,02105	
34,48	0,4228	117,31	849,95	-0,02117	
34,50	0,4228	115,18	849,94	-0,02103	
34,52	0,4226	119,08	849,66	-0,02089	
34,54	0,4228	118,35	849,83	-0,02086	
34,56	0,4231	115,07	849,91	-0,02080	
34,58	0,4232	118,62	849,62	-0,02071	
34,60	0,4234	119,56	849,79	-0,02075	
34,62	0,4235	114,59	850,08	-0,02093	
34,64	0,4233	115,13	849,85	-0,02107	
34,66	0,4233	118,22	849,72	-0,02114	
34,68	0,4238	115,31	849,94	-0,02110	
34,70	0,4240	114,62	849,83	-0,02088	
34,72	0,4240	118,85	849,62	-0,02077	
34,74	0,4241	117,28	849,86	-0,02079	
34,76	0,4241	114,48	849,89	-0,02081	
34,78	0,4240	118,29	849,61	-0,02087	
34,80	0,4244	118,19	849,81	-0,02102	
34,82	0,4247	114,17	850,03	-0,02105	
34,84	0,4247	117,11	849,77	-0,02096	
34,86	0,4247	119,86	849,72	-0,02092	
34,88	0,4249	116,36	849,89	-0,02090	
34,90	0,4250	116,71	849,70	-0,02084	
34,92	0,4253	119,29	849,69	-0,02086	
34,94	0,4255	116,37	850,00	-0,02092	
34,96	0,4254	115,54	849,89	-0,02101	
34,98	0,4253	119,77	849,66	-0,02115	
35,00	0,4255	117,54	849,85	-0,02117	
35,02	0,4258	114,04	849,83	-0,02099	
35,04	0,4259	117,79	849,59	-0,02090	
35,06	0,4261	118,09	849,83	-0,02092	
35,08	0,4262	115,25	849,95	-0,02090	
35,10	0,4260	118,28	849,68	-0,02071	
35,12	0,4261	119,26	849,75	-0,02009	
35,14	0,4265	115,34	849,89	-0,01386	
35,16	0,4266	117,00	849,65	-0,00178	
35,18	0,4267	119,13	849,70	0,00668	
35,20	0,4268	115,43	850,01	0,01646	
35,22	0,4267	115,72	849,85	0,02783	
35,24	0,4267	119,98	849,64	0,03534	
35,26	0,4271	117,18	849,92	0,03816	
35,28	0,4274	114,13	849,96	0,03895	
35,30	0,4273	118,58	849,65	0,03926	
35,32	0,4274	119,08	849,80	0,03946	
35,34	0,4275	114,70	850,03	0,04000	
35,36	0,4277	117,17	849,78	0,04078	
35,38	0,4279	120,43	849,72	0,04115	
35,40	0,4281	117,15	849,95	0,04144	
35,42	0,4281	117,00	849,79	0,04192	
35,44	0,4280	121,02	849,63	0,04187	
35,46	0,4281	118,78	849,92	0,04153	
35,48	0,4283	116,41	849,91	0,04150	
35,50	0,4284	120,24	849,63	0,04134	
35,52	0,4287	119,10	849,84	0,04092	
35,54	0,4289	114,68	850,02	0,04077	
35,56	0,4287	118,01	849,73	0,04075	
35,58	0,4287	120,53	849,69	0,04047	
35,60	0,4290	116,79	849,93	0,04033	
35,62	0,4292	117,44	849,77	0,04045	
35,64	0,4293	120,86	849,63	0,04031	
35,66	0,4295	118,25	849,91	0,04001	
35,68	0,4295	116,26	849,87	0,04006	
35,70	0,4293	120,33	849,60	0,04013	
35,72	0,4296	119,20	849,85	0,03999	
35,74	0,4300	115,25	850,05	0,04013	
35,76	0,4300	118,67	849,75	0,04045	
35,78	0,4301	120,87	849,69	0,04016	
35,80	0,4302	116,97	849,89	0,03986	
35,82	0,4302	117,59	849,72	0,04005	
35,84	0,4305	120,79	849,63	0,04021	
35,86	0,4308	118,09	849,93	0,04059	
35,88	0,4308	116,12	849,86	0,04148	
35,90	0,4307	119,93	849,62	0,04220	
35,92	0,4308	118,48	849,90	0,04223	
35,94	0,4310	115,47	850,01	0,04236	
35,96	0,4311	118,91	849,70	0,04291	
35,98	0,4314	119,95	849,78	0,04322	
36,00	0,4315	116,27	849,98	0,04371	
36,02	0,4314	118,08	849,74	0,04445	
36,04	0,4314	120,17	849,72	0,04485	
36,06	0,4317	116,36	849,95	0,04507	
36,08	0,4319	116,10	849,77	0,04537	
36,10	0,4320	119,95	849,64	0,04535	
36,12	0,4322	118,06	849,97	0,04514	
36,14	0,4322	116,29	849,94	0,04507	
36,16	0,4320	119,93	849,67	0,04494	
36,18	0,4323	118,28	849,82	0,04474	
36,20	0,4326	114,77	849,87	0,04474	
36,22	0,4327	118,35	849,61	0,04474	
36,24	0,4328	119,47	849,79	0,04440	
36,26	0,4329	115,43	850,03	0,04406	
36,28	0,4329	116,89	849,79	0,04383	
36,30	0,4332	119,86	849,66	0,04348	
36,32	0,4335	116,39	849,83	0,04329	
36,34	0,4334	116,25	849,67	0,04337	
36,36	0,4334	119,20	849,62	0,04330	
36,38	0,4336	115,88	849,98	0,04316	
36,40	0,4338	114,32	849,96	0,04329	
36,42	0,4339	118,90	849,66	0,04325	
36,44	0,4341	118,56	849,80	0,04294	
36,46	0,4342	115,19	849,88	0,04281	
36,48	0,4340	118,48	849,62	0,04285	
36,50	0,4342	118,94	849,77	0,04279	
36,52	0,4345	114,69	849,98	0,04318	
36,54	0,4346	116,58	849,72	0,04384	
36,56	0,4348	119,14	849,71	0,04419	
36,58	0,4349	115,36	849,98	0,04451	
36,60	0,4350	115,10	849,82	0,04494	
36,62	0,4352	119,38	849,64	0,04511	
36,64	0,4355	116,46	849,94	0,04522	
36,66	0,4356	113,82	849,95	0,04576	
36,68	0,4354	117,59	849,65	0,04633	
36,70	0,4355	116,91	849,84	0,04658	
36,72	0,4359	113,45	850,01	0,04688	
36,74	0,4360	116,19	849,72	0,04712	
36,76	0,4361	117,66	849,74	0,04694	
36,78	0,4362	113,54	850,00	0,04683	
36,80	0,4362	114,66	849,80	0,04691	
36,82	0,4364	118,21	849,65	0,04662	
36,84	0,4368	115,17	849,91	0,04618	
36,86	0,4368	113,47	849,85	0,04613	
36,88	0,4367	117,52	849,62	0,04599	
36,90	0,4369	116,18	849,89	0,04554	
36,92	0,4372	112,68	850,00	0,04534	
36,94	0,4373	115,65	849,69	0,04522	
36,96	0,4375	116,53	849,77	0,04485	
36,98	0,4376	113,15	849,94	0,04475	
37,00	0,4376	115,53	849,69	0,04483	
37,02	0,4379	117,91	849,69	0,04456	
37,04	0,4382	114,00	849,99	0,04437	
37,06	0,4382	113,56	849,84	0,04443	
37,08	0,4381	117,01	849,65	0,04425	
37,10	0,4384	114,75	849,89	0,04394	
37,12	0,4387	113,30	849,87	0,04405	
37,14	0,4387	118,04	849,61	0,04425	
37,16	0,4388	117,47	849,86	0,04431	
37,18	0,4389	113,56	850,06	0,04484	
37,20	0,4389	116,58	849,75	0,04558	
37,22	0,4392	118,87	849,72	0,04577	
37,24	0,4396	114,54	850,01	0,04568	
37,26	0,4395	115,07	849,85	0,04588	
37,28	0,4394	119,63	849,64	0,04608	
37,30	0,4397	116,55	849,87	0,04631	
37,32	0,4400	113,97	849,85	0,04707	
37,34	0,4401	118,72	849,63	0,04764	
37,36	0,4402	118,14	849,91	0,04790	
37,38	0,4403	115,33	850,03	0,04842	
37,40	0,4404	118,75	849,72	0,04873	
37,42	0,4407	119,86	849,77	0,04840	
37,44	0,4409	116,29	849,91	0,04799	
37,46	0,4408	118,13	849,65	0,04782	
37,48	0,4408	120,10	849,70	0,04734	
37,50	0,4411	115,51	850,05	0,04703	
37,52	0,4413	114,69	849,91	0,04723	
37,54	0,4414	119,22	849,67	0,04720	
37,56	0,4416	117,34	849,86	0,04683	
37,58	0,4416	115,36	849,82	0,04666	
37,60	0,4417	119,41	849,61	0,04647	
37,62	0,4421	118,08	849,90	0,04612	
37,64	0,4423	114,09	850,05	0,04604	
37,66	0,4421	117,56	849,73	0,04620	
37,68	0,4422	119,39	849,74	0,04621	
37,70	0,4424	115,53	849,89	0,04644	
37,72	0,4426	117,41	849,65	0,04687	
37,74	0,4428	119,84	849,68	0,04688	
37,76	0,4430	115,82	850,00	0,04663	
37,78	0,4429	115,76	849,85	0,04678	
37,80	0,4428	119,94	849,65	0,04710	
37,82	0,4432	117,56	849,93	0,04754	
37,84	0,4435	115,40	849,93	0,04845	
37,86	0,4435	119,88	849,64	0,04921	
37,88	0,4436	119,28	849,82	0,04946	
37,90	0,4438	114,77	849,95	0,04979	
37,92	0,4439	117,63	849,67	0,05031	
37,94	0,4442	119,29	849,75	0,05061	
37,96	0,4443	114,96	849,99	0,05087	
37,98	0,4442	116,20	849,76	0,05113	
38,00	0,4442	119,57	849,70	0,05079	
38,02	0,4446	116,18	849,96	0,05032	
38,04	0,4448	115,34	849,81	0,05006	
38,06	0,4448	119,57	849,63	0,04958	
38,08	0,4450	117,55	849,93	0,04917	
38,10	0,4451	115,19	849,96	0,04921	
38,12	0,4453	119,05	849,66	0,04923	
38,14	0,4456	118,65	849,82	0,04904	
38,16	0,4457	114,57	849,95	0,04919	
38,18	0,4455	117,64	849,68	0,04945	
38,20	0,4456	119,51	849,80	0,04930	
38,22	0,4460	116,35	850,02	0,04926	
38,24	0,4461	118,10	849,76	0,04944	
38,26	0,4462	120,77	849,71	0,04932	
38,28	0,4464	116,60	849,96	0,04917	
38,30	0,4466	115,42	849,80	0,04945	
38,32	0,4467	119,47	849,64	0,04956	
38,34	0,4470	117,49	849,94	0,04947	
38,36	0,4470	115,45	849,92	0,04967	
38,38	0,4468	119,84	849,65	0,04974	
38,40	0,4471	119,41	849,87	0,04952	
38,42	0,4474	116,09	849,98	0,04948	
38,44	0,4475	119,46	849,70	0,04954	
38,46	0,4476	120,73	849,80	0,04943	
38,48	0,4477	117,02	849,96	0,04957	
38,50	0,4478	119,64	849,70	0,04987	
38,52	0,4481	122,66	849,73	0,04978	
38,54	0,4483	118,35	849,98	0,04969	
38,56	0,4482	117,98	849,79	0,04978	
38,58	0,4482	121,79	849,65	0,04962	
38,60	0,4484	119,25	849,92	0,04939	
38,62	0,4486	117,98	849,85	0,04952	
38,64	0,4487	122,71	849,63	0,04960	
38,66	0,4490	121,21	849,90	0,04951	
38,68	0,4490	117,48	849,98	0,04964	
38,70	0,4488	121,14	849,68	0,04981	
38,72	0,4491	121,68	849,80	0,04965	
38,74	0,4495	117,75	849,98	0,04952	
38,76	0,4495	120,22	849,71	0,04955	
38,78	0,4496	122,33	849,74	0,04938	
38,80	0,4497	118,11	850,00	0,04938	
38,82	0,4497	118,60	849,79	0,04967	
38,84	0,4500	122,38	849,66	0,04967	
38,86	0,4503	119,25	849,95	0,04955	
38,88	0,4503	116,98	849,87	0,04959	
38,90	0,4502	120,60	849,63	0,04945	
38,92	0,4503	118,94	849,89	0,04922	
38,94	0,4506	116,21	849,96	0,04937	
38,96	0,4507	119,36	849,68	0,04959	
38,98	0,4509	119,45	849,80	0,04952	
39,00	0,4510	116,07	849,94	0,04955	
39,02	0,4509	118,67	849,69	0,04967	
39,04	0,4511	120,50	849,78	0,04948	
39,06	0,4515	116,84	849,99	0,04935	
39,08	0,4515	118,04	849,75	0,04942	
39,10	0,4515	120,52	849,71	0,04929	
39,12	0,4517	117,12	849,92	0,04934	
39,14	0,4519	116,94	849,74	0,04961	
39,16	0,4521	119,65	849,66	0,04955	
39,18	0,4524	117,36	849,94	0,04941	
39,20	0,4523	116,51	849,83	0,04948	
39,22	0,4522	120,54	849,64	0,04936	
39,24	0,4525	118,87	849,91	0,04902	
39,26	0,4528	116,27	849,92	0,04905	
39,28	0,4528	119,39	849,65	0,04922	
39,30	0,4530	118,74	849,87	0,04919	
39,32	0,4530	114,60	850,00	0,04936	
39,34	0,4530	117,54	849,70	0,04955	
39,36	0,4534	119,29	849,75	0,04937	
39,38	0,4537	115,52	849,95	0,04921	
39,40	0,4536	117,37	849,72	0,04931	
39,42	0,4536	119,98	849,70	0,04913	
39,44	0,4539	115,98	850,00	0,04905	
39,46	0,4541	115,66	849,88	0,04938	
39,48	0,4542	120,56	849,65	0,04951	
39,50	0,4544	119,00	849,91	0,04935	
39,52	0,4544	116,41	849,93	0,04938	
39,54	0,4545	120,02	849,65	0,04944	
39,56	0,4549	119,35	849,83	0,04919	
39,58	0,4551	115,47	849,94	0,04918	
39,60	0,4549	118,10	849,68	0,04935	
39,62	0,4550	119,58	849,83	0,04917	
39,64	0,4552	116,25	850,03	0,04915	
39,66	0,4554	117,81	849,75	0,04946	
39,68	0,4556	120,03	849,74	0,04937	
39,70	0,4557	116,03	850,04	0,04912	
39,72	0,4557	115,83	849,89	0,04916	
39,74	0,4559	119,98	849,68	0,04908	
39,76	0,4563	118,34	849,85	0,04895	
39,78	0,4564	116,98	849,76	0,04917	
39,80	0,4563	120,72	849,61	0,04928	
39,82	0,4564	119,00	849,95	0,04914	
39,84	0,4567	115,61	850,03	0,04922	
39,86	0,4568	118,52	849,70	0,04927	
39,88	0,4570	118,52	849,83	0,04899	
39,90	0,4571	114,65	849,99	0,04898	
39,92	0,4570	117,60	849,72	0,04919	
39,94	0,4571	119,83	849,71	0,04914	
39,96	0,4575	116,39	849,88	0,04914	
39,98	0,4576	116,76	849,68	0,04935	
40,00	0,4576	119,46	849,69	0,04924	
40,02	0,4578	116,90	849,99	0,04909	
40,04	0,4580	116,82	849,83	0,04913	
40,06	0,4581	120,43	849,63	0,04899	
40,08	0,4584	118,36	849,92	0,04880	
40,10	0,4584	116,18	849,95	0,04895	
40,12	0,4583	120,17	849,66	0,04918	
40,14	0,4585	119,47	849,82	0,04914	
40,16	0,4589	115,37	849,96	0,04918	
40,18	0,4589	118,39	849,67	0,04924	
40,20	0,4590	119,99	849,73	0,04896	
40,22	0,4592	115,25	850,05	0,04878	
40,24	0,4593	116,02	849,86	0,04895	
40,26	0,4595	119,81	849,69	0,04893	
40,28	0,4598	116,67	849,95	0,04880	
40,30	0,4597	114,96	849,86	0,04906	
40,32	0,4596	119,00	849,64	0,04912	
40,34	0,4599	117,38	849,91	0,04879	
40,36	0,4602	114,17	849,94	0,04870	
40,38	0,4602	117,69	849,67	0,04874	
40,40	0,4604	117,66	849,79	0,04860	
40,42	0,4605	114,07	849,87	0,04873	
40,44	0,4606	116,67	849,62	0,04892	
40,46	0,4609	117,66	849,82	0,04876	
40,48	0,4611	113,57	850,09	0,04877	
40,50	0,4610	114,71	849,83	0,04898	
40,52	0,4610	117,47	849,75	0,04884	
40,54	0,4613	114,31	849,94	0,04871	
40,56	0,4615	115,14	849,76	0,04882	
40,58	0,4616	119,02	849,68	0,04871	
40,60	0,4618	116,18	849,97	0,04864	
40,62	0,4617	114,54	849,87	0,04889	
40,64	0,4619	117,99	849,68	0,04894	
40,66	0,4623	116,61	849,89	0,04881	
40,68	0,4624	113,85	849,85	0,04883	
40,70	0,4623	117,54	849,60	0,04873	
40,72	0,4624	117,48	849,85	0,04845	
40,74	0,4381	114,07	849,98	0,04851	
40,76	0,2628	117,22	849,68	0,04873	
40,78	0,07950	118,16	849,74	0,04869	
40,80	0,00745	113,77	849,98	0,04866	
40,82	-0,00039	115,30	849,75	0,04881	
40,84	0,00304	118,26	849,67	0,04872	
40,86	0,00421	115,09	850,00	0,04846	
40,88	0,00413	113,98	849,92	0,04852	
40,90	0,00404	117,89	849,67	0,04853	
40,92	0,00423	116,01	849,91	0,04835	
40,94	0,00427	113,13	849,97	0,04852	
40,96	0,00426	116,80	849,68	0,04874	
40,98	0,00466	116,85	849,81	0,04862	
41,00	0,00492	113,00	849,97	0,04859	
41,02	0,00479	115,27	849,69	0,04866	
41,04	0,00486	117,41	849,73	0,04842	
41,06	0,00525	113,68	850,04	0,04825	
41,08	0,00543	114,75	849,87	0,04837	
41,10	0,00575	119,67	849,73	0,04834	
41,12	0,00630	119,36	849,91	0,04827	
41,14	0,00676	122,30	849,76	0,04841	
41,16	0,00734	130,33	849,64	0,04824	
41,18	0,00820	133,30	849,97	0,04784	
41,20	0,00900	136,31	849,95	0,04769	
41,22	0,00975	145,09	849,68	0,04757	
41,24	0,01078	150,42	849,86	0,04729	
41,26	0,01187	154,30	849,91	0,04722	
41,28	0,01292	165,10	849,64	0,04722	
41,30	0,01409	173,33	849,84	0,04686	
41,32	0,01526	177,83	850,03	0,04653	
41,34	0,01648	189,16	849,74	0,04633	
41,36	0,01814	201,16	849,73	0,04587	
41,38	0,01979	207,09	849,96	0,04555	
41,40	0,02121	217,48	849,76	0,04541	
41,42	0,02288	231,39	849,66	0,04507	
41,44	0,02482	239,41	849,94	0,04467	
41,46	0,02655	250,00	849,85	0,04447	
41,48	0,02832	266,56	849,62	0,04414	
41,50	0,03045	277,85	849,88	0,04354	
41,52	0,03254	287,67	849,94	0,04301	
41,54	0,03455	304,39	849,65	0,04251	
41,56	0,03687	317,90	849,85	0,04180	
41,58	0,03919	327,03	850,07	0,04128	
41,60	0,04141	342,57	849,79	0,04096	
41,62	0,04398	358,51	849,71	0,04042	
41,64	0,04680	367,68	849,99	0,03974	
41,66	0,04942	381,11	849,85	0,03918	
41,68	0,05201	398,73	849,63	0,03838	
41,70	0,05485	409,20	849,93	0,03735	
41,72	0,05770	419,73	849,99	0,03658	
41,74	0,06053	437,85	849,68	0,03591	
41,76	0,06364	451,94	849,83	0,03502	
41,78	0,06679	461,19	849,98	0,03422	
41,80	0,06981	476,13	849,71	0,03341	
41,82	0,07317	490,24	849,75	0,03232	
41,84	0,07662	498,65	849,95	0,03114	
41,86	0,07993	512,01	849,72	0,03004	
41,88	0,08348	527,22	849,71	0,02872	
41,90	0,08720	535,23	849,99	0,02750	
41,92	0,09072	545,63	849,85	0,02639	
41,94	0,09448	559,83	849,69	0,02507	
41,96	0,09846	568,14	849,88	0,02369	
41,98	0,1021	577,35	849,76	0,02235	
42,00	0,1059	590,49	849,60	0,02084	
42,02	0,1100	597,77	849,94	0,01924	
42,04	0,1141	603,36	849,99	0,01790	
42,06	0,1180	614,12	849,70	0,01656	
42,08	0,1221	620,46	849,81	0,01506	
42,10	0,1262	623,80	849,85	0,01371	
42,12	0,1300	632,94	849,59	0,01233	
42,14	0,1341	638,86	849,80	0,01071	
42,16	0,1383	639,15	850,07	0,00913	
42,18	0,1421	644,98	849,82	0,00769	
42,20	0,1462	652,23	849,69	0,00599	
42,22	0,1503	652,72	849,93	0,00435	
42,24	0,1543	656,58	849,80	0,00298	
42,26	0,1582	664,59	849,64	0,00149	
42,28	0,1624	665,88	849,89	-0,00013	
42,30	0,1664	666,51	849,85	-0,00166	
42,32	0,1703	673,17	849,63	-0,00338	
42,34	0,1744	674,80	849,91	-0,00522	
42,36	0,1783	673,70	850,01	-0,00682	
42,38	0,1820	679,51	849,70	-0,00831	
42,40	0,1859	682,55	849,79	-0,01000	
42,42	0,1900	680,80	849,95	-0,01154	
42,44	0,1938	685,30	849,69	-0,01305	
42,46	0,1979	689,41	849,75	-0,01487	
42,48	0,2020	687,15	850,03	-0,01662	
42,50	0,2059	688,77	849,82	-0,01826	
42,52	0,2099	693,29	849,69	-0,02004	
42,54	0,2141	691,89	849,96	-0,02174	
42,56	0,2181	692,17	849,86	-0,02323	
42,58	0,2220	698,33	849,64	-0,02484	
42,60	0,2262	698,13	849,94	-0,02654	
42,62	0,2302	696,17	850,01	-0,02821	
42,64	0,2341	700,98	849,71	-0,03000	
42,66	0,2382	701,91	849,81	-0,03192	
42,68	0,2423	699,21	849,87	-0,03364	
42,70	0,2462	702,71	849,63	-0,03527	
42,72	0,2503	704,88	849,80	-0,03701	
42,74	0,2544	702,48	849,99	-0,03858	
42,76	0,2583	704,89	849,71	-0,04014	
42,78	0,2623	708,18	849,72	-0,04201	
42,80	0,2665	705,29	850,01	-0,04381	
42,82	0,2704	705,90	849,83	-0,04549	
42,84	0,2743	709,93	849,70	-0,04733	
42,86	0,2781	707,76	849,99	-0,04910	
42,88	0,2819	706,91	849,92	-0,05066	
42,90	0,2858	712,16	849,65	-0,05229	
42,92	0,2899	711,48	849,86	-0,05407	
42,94	0,2940	708,78	849,93	-0,05574	
42,96	0,2979	713,27	849,65	-0,05751	
42,98	0,3020	714,28	849,77	-0,05946	
43,00	0,3061	711,13	849,96	-0,06119	
43,02	0,3100	713,97	849,71	-0,06283	
43,04	0,3140	716,57	849,75	-0,06463	
43,06	0,3182	713,20	850,01	-0,06629	
43,08	0,3221	714,69	849,80	-0,06776	
43,10	0,3261	718,37	849,67	-0,06950	
43,12	0,3303	715,02	850,00	-0,07135	
43,14	0,3343	713,27	849,96	-0,07308	
43,16	0,3381	717,92	849,67	-0,07480	
43,18	0,3423	717,54	849,87	-0,07664	
43,20	0,3464	714,56	849,97	-0,07826	
43,22	0,3502	718,41	849,68	-0,07983	
43,24	0,3544	719,43	849,81	-0,08158	
43,26	0,3584	715,65	850,00	-0,08326	
43,28	0,3622	718,46	849,74	-0,08503	
43,30	0,3663	721,47	849,75	-0,08702	
43,32	0,3704	718,14	850,00	-0,08887	
43,34	0,3741	719,05	849,81	-0,09054	
43,36	0,3779	723,35	849,67	-0,09230	
43,38	0,3820	720,76	849,98	-0,09408	
43,40	0,3860	719,41	849,93	-0,09563	
43,42	0,3899	724,39	849,68	-0,09729	
43,44	0,3940	723,63	849,94	-0,09915	
43,46	0,3981	720,87	850,01	-0,1009	
43,48	0,4020	725,16	849,71	-0,1027	
43,50	0,4061	726,28	849,84	-0,1046	
43,52	0,4102	721,83	850,01	-0,1063	
43,54	0,4141	723,58	849,73	-0,1078	
43,56	0,4182	725,85	849,73	-0,1095	
43,58	0,4223	721,92	849,94	-0,1113	
43,60	0,4262	722,59	849,73	-0,1130	
43,62	0,4302	726,21	849,67	-0,1149	
43,64	0,4344	723,48	849,96	-0,1168	
43,66	0,4383	722,67	849,84	-0,1184	
43,68	0,4423	727,05	849,66	-0,1201	
43,70	0,4465	726,06	849,94	-0,1219	
43,72	0,4505	724,39	849,95	-0,1234	
43,74	0,4544	728,47	849,65	-0,1251	
43,76	0,4585	727,90	849,83	-0,1269	
43,78	0,4626	724,66	850,00	-0,1288	
43,80	0,4665	728,57	849,72	-0,1306	
43,82	0,4704	730,97	849,73	-0,1324	
43,84	0,4742	726,97	849,95	-0,1341	
43,86	0,4779	728,20	849,74	-0,1356	
43,88	0,4819	731,80	849,68	-0,1373	
43,90	0,4861	728,70	850,04	-0,1390	
43,92	0,4901	727,08	849,99	-0,1406	
43,94	0,4940	731,60	849,68	-0,1424	
43,96	0,4981	730,62	849,88	-0,1444	
43,98	0,5022	727,58	849,99	-0,1461	
44,00	0,5061	731,31	849,69	-0,1478	
44,02	0,5102	732,30	849,80	-0,1496	
44,04	0,5143	728,24	850,03	-0,1512	
44,06	0,5182	730,41	849,79	-0,1527	
44,08	0,5222	734,12	849,71	-0,1545	
44,10	0,5264	730,16	849,93	-0,1563	
44,12	0,5303	729,74	849,76	-0,1581	
44,14	0,5343	733,49	849,68	-0,1599	
44,16	0,5385	730,95	850,03	-0,1616	
44,18	0,5425	729,02	849,99	-0,1632	
44,20	0,5463	733,64	849,69	-0,1648	
44,22	0,5505	733,37	849,82	-0,1665	
44,24	0,5543	730,96	849,82	-0,1681	
44,26	0,5579	734,93	849,61	-0,1700	
44,28	0,5619	734,85	849,87	-0,1719	
44,30	0,5660	731,01	849,98	-0,1736	
44,32	0,5698	733,71	849,69	-0,1752	
44,34	0,5740	735,28	849,82	-0,1770	
44,36	0,5781	732,17	850,00	-0,1786	
44,38	0,5819	734,45	849,72	-0,1802	
44,40	0,5860	736,90	849,73	-0,1821	
44,42	0,5902	732,80	849,99	-0,1840	
44,44	0,5941	732,78	849,79	-0,1855	
44,46	0,5981	736,71	849,69	-0,1873	
44,48	0,6022	734,27	850,03	-0,1890	
44,50	0,6062	732,92	849,97	-0,1905	
44,52	0,6101	737,76	849,69	-0,1921	
44,54	0,6143	736,58	849,91	-0,1940	
44,56	0,6183	733,46	850,00	-0,1957	
44,58	0,6222	737,39	849,70	-0,1974	
44,60	0,6263	738,11	849,77	-0,1992	
44,62	0,6304	734,77	849,92	-0,2009	
44,64	0,6343	737,54	849,67	-0,2025	
44,66	0,6384	740,34	849,72	-0,2043	
44,68	0,6426	736,29	850,03	-0,2060	
44,70	0,6465	736,22	849,85	-0,2076	
44,72	0,6504	740,30	849,67	-0,2095	
44,74	0,6545	737,77	849,93	-0,2113	
44,76	0,6582	736,20	849,89	-0,2130	
44,78	0,6619	741,18	849,64	-0,2146	
44,80	0,6660	740,55	849,89	-0,2163	
44,82	0,6700	737,55	849,99	-0,2179	
44,84	0,6739	740,49	849,69	-0,2195	
44,86	0,6780	740,43	849,79	-0,2213	
44,88	0,6821	736,01	849,96	-0,2231	
44,90	0,6860	738,55	849,71	-0,2248	
44,92	0,6900	741,89	849,70	-0,2265	
44,94	0,6942	738,51	850,00	-0,2282	
44,96	0,6982	738,93	849,86	-0,2297	
44,98	0,7021	742,85	849,68	-0,2313	
45,00	0,7063	740,40	849,96	-0,2332	
45,02	0,7103	738,11	849,94	-0,2349	
45,04	0,7142	743,11	849,68	-0,2366	
45,06	0,7184	742,77	849,93	-0,2386	
45,08	0,7225	738,89	850,03	-0,2403	
45,10	0,7263	742,10	849,73	-0,2418	
45,12	0,7304	743,15	849,82	-0,2435	
45,14	0,7345	739,37	850,00	-0,2451	
45,16	0,7384	742,07	849,74	-0,2466	
45,18	0,7424	745,28	849,74	-0,2484	
45,20	0,7463	741,84	850,02	-0,2503	
45,22	0,7500	742,31	849,84	-0,2519	
45,24	0,7539	745,58	849,70	-0,2536	
45,26	0,7580	742,33	849,99	-0,2553	
45,28	0,7620	740,59	849,93	-0,2568	
45,30	0,7660	744,94	849,69	-0,2585	
45,32	0,7701	744,00	849,88	-0,2603	
45,34	0,7741	741,19	849,88	-0,2620	
45,36	0,7780	745,13	849,62	-0,2638	
45,38	0,7822	745,27	849,87	-0,2656	
45,40	0,7863	741,22	850,07	-0,2672	
45,42	0,7901	743,92	849,76	-0,2686	
45,44	0,7942	746,54	849,75	-0,2702	
45,46	0,7984	742,39	850,07	-0,2720	
45,48	0,8023	743,08	849,91	-0,2737	
45,50	0,8062	748,11	849,69	-0,2755	
45,52	0,8104	745,60	850,02	-0,2773	
45,54	0,8145	742,65	850,07	-0,2789	
45,56	0,8183	747,24	849,73	-0,2804	
45,58	0,8224	747,63	849,85	-0,2821	
45,60	0,8266	743,01	849,99	-0,2837	
45,62	0,8304	745,20	849,72	-0,2853	
45,64	0,8345	747,62	849,78	-0,2871	
45,66	0,8386	744,52	849,98	-0,2889	
45,68	0,8423	745,51	849,75	-0,2905	
45,70	0,8460	748,62	849,71	-0,2923	
45,72	0,8500	745,68	850,03	-0,2940	
45,74	0,8540	745,88	849,90	-0,2955	
45,76	0,8579	750,85	849,66	-0,2972	
45,78	0,8621	748,59	849,93	-0,2990	
45,80	0,8661	745,28	849,97	-0,3007	
45,82	0,8700	749,76	849,69	-0,3025	
45,84	0,8741	749,87	849,81	-0,3043	
45,86	0,8782	745,63	849,91	-0,3058	
45,88	0,8821	748,17	849,64	-0,3073	
45,90	0,8862	749,45	849,79	-0,3090	
45,92	0,8903	745,66	850,06	-0,3107	
45,94	0,8942	747,61	849,81	-0,3123	
45,96	0,8982	751,24	849,70	-0,3140	
45,98	0,9024	748,20	849,95	-0,3158	
46,00	0,9063	747,65	849,82	-0,3174	
46,02	0,9103	750,89	849,68	-0,3191	
46,04	0,9145	749,10	849,96	-0,3208	
46,06	0,9185	747,62	849,91	-0,3223	
46,08	0,9224	751,78	849,65	-0,3238	
46,10	0,9266	750,87	849,89	-0,3256	
46,12	0,9306	747,86	849,99	-0,3272	
46,14	0,9345	751,48	849,69	-0,3289	
46,16	0,9386	752,57	849,84	-0,3307	
46,18	0,9427	748,99	850,09	-0,3323	
46,20	0,9463	750,50	849,83	-0,3336	
46,22	0,9500	753,11	849,72	-0,3352	
46,24	0,9541	749,53	849,97	-0,3368	
46,26	0,9580	749,44	849,83	-0,3385	
46,28	0,9620	753,76	849,65	-0,3403	
46,30	0,9662	751,24	849,99	-0,3421	
46,32	0,9702	748,17	850,03	-0,3437	
46,34	0,9741	751,97	849,71	-0,3453	
46,36	0,9782	751,66	849,81	-0,3470	
46,38	0,9823	748,40	849,93	-0,3485	
46,40	0,9862	752,09	849,66	-0,3500	
46,42	0,9903	753,47	849,77	-0,3518	
46,44	0,9944	749,38	850,01	-0,3535	
46,46	0,9983	751,21	849,78	-0,3552	
46,48	1,002	754,79	849,73	-0,3570	
46,50	1,006	751,76	850,01	-0,3586	
46,52	1,010	751,06	849,87	-0,3600	
46,54	1,014	754,79	849,66	-0,3615	
46,56	1,019	752,28	849,96	-0,3633	
46,58	1,023	749,61	849,98	-0,3649	
46,60	1,026	753,89	849,68	-0,3667	
46,62	1,030	753,86	849,82	-0,3685	
46,64	1,034	750,50	849,94	-0,3701	
46,66	1,038	753,15	849,67	-0,3715	
46,68	1,042	754,48	849,79	-0,3731	
46,70	1,046	750,74	850,06	-0,3747	
46,72	1,050	751,97	849,83	-0,3763	
46,74	1,054	754,85	849,73	-0,3781	
46,76	1,058	751,71	849,93	-0,3798	
46,78	1,062	751,69	849,75	-0,3814	
46,80	1,066	755,00	849,68	-0,3831	
46,82	1,070	752,27	850,00	-0,3841	
46,84	1,074	750,67	849,91	-0,3847	
46,86	1,078	754,98	849,67	-0,3857	
46,88	1,082	754,13	849,93	-0,3873	
46,90	1,086	751,12	850,01	-0,3890	
46,92	1,090	754,60	849,71	-0,3906	
46,94	1,094	754,78	849,87	-0,3924	
46,96	1,099	751,19	850,07	-0,3940	
46,98	1,102	754,14	849,78	-0,3954	
47,00	1,106	756,86	849,79	-0,3970	
47,02	1,111	752,93	850,01	-0,3986	
47,04	1,114	753,70	849,78	-0,4005	
47,06	1,118	757,13	849,71	-0,4032	
47,08	1,123	753,49	850,06	-0,4057	
47,10	1,127	752,24	849,98	-0,4074	
47,12	1,130	757,11	849,72	-0,4090	
47,14	1,134	755,46	849,96	-0,4106	
47,16	1,138	752,23	850,00	-0,4121	
47,18	1,142	756,59	849,69	-0,4137	
47,20	1,146	756,40	849,81	-0,4154	
47,22	1,150	751,81	849,94	-0,4171	
47,24	1,154	754,63	849,68	-0,4187	
47,26	1,158	756,37	849,80	-0,4205	
47,28	1,162	752,21	850,08	-0,4220	
47,30	1,166	753,20	849,87	-0,4234	
47,32	1,170	757,67	849,68	-0,4250	
47,34	1,174	755,20	849,91	-0,4268	
47,36	1,178	754,00	849,80	-0,4285	
47,38	1,182	757,26	849,64	-0,4303	
47,40	1,186	754,63	850,02	-0,4320	
47,42	1,190	751,66	850,11	-0,4335	
47,44	1,194	755,74	849,75	-0,4349	
47,46	1,198	756,98	849,86	-0,4366	
47,48	1,203	753,46	850,06	-0,4382	
47,50	1,206	756,03	849,79	-0,4398	
47,52	1,210	758,25	849,76	-0,4416	
47,54	1,215	754,12	849,99	-0,4433	
47,56	1,218	753,82	849,79	-0,4448	
47,58	1,222	756,89	849,70	-0,4464	
47,60	1,226	754,00	850,00	-0,4479	
47,62	1,230	752,80	849,90	-0,4493	
47,64	1,234	756,64	849,69	-0,4509	
47,66	1,238	755,07	849,94	-0,4527	
47,68	1,242	753,20	849,93	-0,4544	
47,70	1,246	757,64	849,65	-0,4560	
47,72	1,250	757,97	849,88	-0,4576	
47,74	1,254	754,99	850,05	-0,4590	
47,76	1,258	758,21	849,76	-0,4605	
47,78	1,262	759,36	849,82	-0,4622	
47,80	1,266	755,30	849,96	-0,4638	
47,82	1,270	756,99	849,70	-0,4654	
47,84	1,274	759,65	849,78	-0,4672	
47,86	1,278	755,88	850,08	-0,4688	
47,88	1,282	755,97	849,86	-0,4703	
47,90	1,286	759,15	849,70	-0,4719	
47,92	1,290	756,14	849,95	-0,4734	
47,94	1,294	754,98	849,86	-0,4749	
47,96	1,298	759,14	849,67	-0,4766	
47,98	1,303	757,50	849,97	-0,4785	
48,00	1,307	754,88	850,00	-0,4801	
48,02	1,310	758,60	849,71	-0,4817	
48,04	1,314	758,34	849,87	-0,4833	
48,06	1,318	754,59	849,99	-0,4847	
48,08	1,322	757,80	849,69	-0,4862	
48,10	1,326	759,64	849,80	-0,4879	
48,12	1,330	756,03	850,05	-0,4896	
48,14	1,334	757,82	849,81	-0,4911	
48,16	1,338	761,39	849,71	-0,4928	
48,18	1,342	757,39	850,02	-0,4944	
48,20	1,346	756,33	849,92	-0,4959	
48,22	1,350	760,39	849,69	-0,4974	
48,24	1,354	758,16	849,93	-0,4990	
48,26	1,358	755,84	849,93	-0,5005	
48,28	1,362	760,42	849,65	-0,5022	
48,30	1,366	759,92	849,89	-0,5040	
48,32	1,370	755,63	850,04	-0,5056	
48,34	1,374	758,58	849,74	-0,5071	
48,36	1,378	759,99	849,83	-0,5088	
48,38	1,382	756,17	850,04	-0,5103	
48,40	1,386	757,82	849,79	-0,5117	
48,42	1,390	760,69	849,77	-0,5134	
48,44	1,394	757,89	850,04	-0,5151	
48,46	1,398	758,01	849,86	-0,5166	
48,48	1,402	762,14	849,69	-0,5182	
48,50	1,407	759,98	849,97	-0,5199	
48,52	1,411	758,39	849,92	-0,5213	
48,54	1,414	761,78	849,69	-0,5228	
48,56	1,418	760,35	849,97	-0,5244	
48,58	1,422	757,02	850,02	-0,5259	
48,60	1,426	759,60	849,71	-0,5274	
48,62	1,430	759,69	849,87	-0,5292	
48,64	1,434	756,84	850,03	-0,5308	
48,66	1,438	759,71	849,74	-0,5322	
48,68	1,442	761,70	849,84	-0,5338	
48,70	1,446	758,32	850,13	-0,5354	
48,72	1,450	758,97	849,90	-0,5368	
48,74	1,454	761,85	849,77	-0,5385	
48,76	1,458	758,69	850,03	-0,5402	
48,78	1,462	757,93	849,91	-0,5418	
48,80	1,466	761,23	849,71	-0,5434	
48,82	1,470	759,59	849,88	-0,5450	
48,84	1,474	758,00	849,77	-0,5464	
48,86	1,478	761,28	849,64	-0,5479	
48,88	1,482	760,01	850,02	-0,5496	
48,90	1,486	757,48	850,09	-0,5512	
48,92	1,490	761,30	849,73	-0,5528	
48,94	1,494	761,47	849,97	-0,5545	
48,96	1,498	757,05	850,38	-0,5560	
48,98	1,502	759,00	850,11	-0,5573	
49,00	1,506	763,79	849,79	-0,5588	
49,02	1,510	760,43	850,19	-0,5605	
49,04	1,514	758,10	850,36	-0,5621	
49,06	1,518	762,56	849,92	-0,5637	
49,08	1,522	763,87	849,82	-0,5654	
49,10	1,526	759,06	850,15	-0,5671	
49,12	1,530	759,45	850,00	-0,5685	
49,14	1,534	763,52	849,76	-0,5701	
49,16	1,538	760,50	850,03	-0,5717	
49,18	1,542	757,59	850,03	-0,5732	
49,20	1,546	761,73	849,73	-0,5747	
49,22	1,550	761,82	849,94	-0,5764	
49,24	1,554	758,04	850,09	-0,5780	
49,26	1,558	761,25	849,77	-0,5795	
49,28	1,562	763,96	849,80	-0,5811	
49,30	1,566	759,72	850,07	-0,5827	
49,32	1,570	759,92	849,85	-0,5841	
49,34	1,574	762,87	849,73	-0,5857	
49,36	1,578	759,59	849,97	-0,5874	
49,38	1,582	758,63	849,84	-0,5889	
49,40	1,586	763,06	849,67	-0,5905	
49,42	1,591	761,27	849,99	-0,5921	
49,44	1,595	758,27	850,02	-0,5935	
49,46	1,598	761,98	849,72	-0,5949	
49,48	1,603	761,93	849,93	-0,5966	
49,50	1,607	758,59	850,10	-0,5983	
49,52	1,610	761,55	849,80	-0,5999	
49,54	1,614	762,94	849,77	-0,6015	
49,56	1,618	758,83	849,93	-0,6030	
49,58	1,622	760,21	849,69	-0,6045	
49,60	1,626	763,52	849,72	-0,6060	
49,62	1,630	760,17	850,08	-0,6076	
49,64	1,634	759,59	849,95	-0,6092	
49,66	1,638	763,93	849,70	-0,6108	
49,68	1,642	761,82	849,97	-0,6125	
49,70	1,646	759,29	850,02	-0,6140	
49,72	1,650	763,89	849,70	-0,6155	
49,74	1,654	764,14	849,84	-0,6170	
49,76	1,658	759,99	850,01	-0,6185	
49,78	1,662	762,53	849,73	-0,6200	
49,80	1,666	764,58	849,76	-0,6216	
49,82	1,670	760,38	850,07	-0,6232	
49,84	1,674	761,21	849,89	-0,6248	
49,86	1,678	765,48	849,73	-0,6264	
49,88	1,682	762,54	849,98	-0,6280	
49,90	1,686	760,80	849,89	-0,6293	
49,92	1,690	764,61	849,70	-0,6308	
49,94	1,694	762,58	850,03	-0,6326	
49,96	1,698	759,44	850,10	-0,6342	
49,98	1,702	763,20	849,77	-0,6358	
50,00	1,706	764,09	849,90	-0,6374	
50,02	1,710	759,86	850,10	-0,6389	
50,04	1,714	761,87	849,82	-0,6403	
50,06	1,718	764,24	849,82	-0,6419	
50,08	1,722	760,98	850,03	-0,6435	
50,10	1,726	762,09	849,79	-0,6450	
50,12	1,730	765,15	849,75	-0,6467	
50,14	1,734	762,07	850,03	-0,6483	
50,16	1,738	761,13	849,87	-0,6499	
50,18	1,742	764,33	849,69	-0,6514	
50,20	1,746	762,20	849,98	-0,6530	
50,22	1,750	760,48	849,96	-0,6544	
50,24	1,754	764,87	849,68	-0,6558	
50,26	1,758	763,90	849,90	-0,6575	
50,28	1,762	759,20	850,02	-0,6591	
50,30	1,766	761,94	849,71	-0,6607	
50,32	1,770	763,69	849,78	-0,6624	
50,34	1,775	760,56	850,01	-0,6639	
50,36	1,778	762,57	849,76	-0,6653	
50,38	1,782	765,71	849,75	-0,6668	
50,40	1,786	762,37	850,09	-0,6683	
50,42	1,790	762,25	849,94	-0,6699	
50,44	1,794	766,41	849,71	-0,6715	
50,46	1,798	764,40	850,01	-0,6731	
50,48	1,802	761,40	850,05	-0,6747	
50,50	1,806	765,14	849,74	-0,6762	
50,52	1,810	765,23	849,90	-0,6778	
50,54	1,814	761,41	850,07	-0,6793	
50,56	1,818	764,43	849,78	-0,6807	
50,58	1,822	766,60	849,80	-0,6822	
50,60	1,826	762,49	850,01	-0,6838	
50,62	1,830	763,05	849,77	-0,6853	
50,64	1,834	766,16	849,73	-0,6868	
50,66	1,838	763,16	850,05	-0,6884	
50,68	1,842	762,76	849,91	-0,6899	
50,70	1,846	767,05	849,71	-0,6914	
50,72	1,850	764,86	850,02	-0,6930	
50,74	1,854	761,62	850,03	-0,6945	
50,76	1,858	765,13	849,72	-0,6961	
50,78	1,862	765,15	849,87	-0,6977	
50,80	1,866	761,82	849,98	-0,6993	
50,82	1,870	765,19	849,69	-0,7008	
50,84	1,874	766,85	849,83	-0,7023	
50,86	1,879	762,97	850,06	-0,7037	
50,88	1,882	764,36	849,79	-0,7051	
50,90	1,886	767,27	849,77	-0,7068	
50,92	1,890	763,73	850,02	-0,7085	
50,94	1,894	763,71	849,82	-0,7100	
50,96	1,898	767,18	849,72	-0,7116	
50,98	1,902	764,41	850,03	-0,7131	
51,00	1,906	762,76	849,93	-0,7145	
51,02	1,910	767,16	849,69	-0,7160	
51,04	1,914	765,74	849,97	-0,7176	
51,06	1,918	762,94	850,03	-0,7192	
51,08	1,922	767,00	849,72	-0,7207	
51,10	1,926	766,77	849,84	-0,7224	
51,12	1,930	761,97	849,98	-0,7239	
51,14	1,934	764,37	849,71	-0,7255	
51,16	1,938	766,50	849,76	-0,7270	
51,18	1,942	762,87	849,99	-0,7285	
51,20	1,946	764,32	849,77	-0,7299	
51,22	1,950	768,14	849,71	-0,7315	
51,24	1,954	764,30	850,09	-0,7331	
51,26	1,958	762,83	850,04	-0,7345	
51,28	1,962	767,52	849,74	-0,7359	
51,30	1,966	765,85	849,94	-0,7375	
51,32	1,971	762,14	849,99	-0,7390	
51,34	1,974	766,38	849,70	-0,7405	
51,36	1,979	767,18	849,90	-0,7421	
51,38	1,983	763,47	850,09	-0,7437	
51,40	1,986	765,55	849,78	-0,7452	
51,42	1,990	767,55	849,85	-0,7469	
51,44	1,994	763,52	850,14	-0,7485	
51,46	1,998	764,42	849,91	-0,7498	
51,48	2,002	768,32	849,78	-0,7513	
51,50	2,006	765,03	850,12	-0,7529	
51,52	2,010	762,79	850,05	-0,7543	
51,54	2,014	767,22	849,76	-0,7559	
51,56	2,018	765,92	850,03	-0,7575	
51,58	2,022	762,76	850,13	-0,7590	
51,60	2,026	766,51	849,77	-0,7604	
51,62	2,030	767,69	849,87	-0,7620	
51,64	2,034	763,33	850,14	-0,7635	
51,66	2,038	765,00	849,88	-0,7649	
51,68	2,042	767,96	849,78	-0,7665	
51,70	2,046	764,33	849,99	-0,7681	
51,72	2,050	763,80	849,80	-0,7696	
51,74	2,054	766,96	849,72	-0,7712	
51,76	2,058	764,87	850,01	-0,7727	
51,78	2,062	763,70	849,88	-0,7741	
51,80	2,066	767,23	849,68	-0,7757	
51,82	2,071	765,15	850,00	-0,7772	
51,84	2,075	762,52	850,06	-0,7787	
51,86	2,079	766,95	849,73	-0,7802	
51,88	2,083	767,41	849,89	-0,7818	
51,90	2,086	763,36	850,03	-0,7833	
51,92	2,090	765,69	849,74	-0,7848	
51,94	2,094	767,12	849,80	-0,7863	
51,96	2,098	762,58	850,04	-0,7878	
51,98	2,102	762,94	849,80	-0,7891	
52,00	2,106	766,07	849,76	-0,7907	
52,02	2,110	763,05	850,11	-0,7923	
52,04	2,114	762,42	849,99	-0,7939	
52,06	2,118	766,93	849,73	-0,7954	
52,08	2,122	765,01	849,96	-0,7970	
52,10	2,126	762,28	849,97	-0,7983	
52,12	2,130	766,71	849,69	-0,7997	
52,14	2,134	766,69	849,93	-0,8014	
52,16	2,138	762,35	850,09	-0,8030	
52,18	2,142	765,12	849,77	-0,8045	
52,20	2,146	766,91	849,86	-0,8062	
52,22	2,151	762,99	850,13	-0,8077	
52,24	2,154	764,10	849,88	-0,8090	
52,26	2,159	767,29	849,77	-0,8105	
52,28	2,163	763,63	850,02	-0,8120	
52,30	2,166	762,77	849,88	-0,8134	
52,32	2,170	766,99	849,70	-0,8150	
52,34	2,174	765,16	849,97	-0,8167	
52,36	2,178	762,60	849,92	-0,8182	
52,38	2,182	766,33	849,69	-0,8197	
52,40	2,186	765,37	850,02	-0,8212	
52,42	2,190	762,59	850,17	-0,8226	
52,44	2,194	766,31	849,82	-0,8240	
52,46	2,198	767,68	849,80	-0,8256	
52,48	2,202	764,12	849,90	-0,8271	
52,50	2,206	765,64	849,66	-0,8285	
52,52	2,210	766,84	849,78	-0,8302	
52,54	2,214	762,83	850,08	-0,8317	
52,56	2,218	762,99	849,85	-0,8332	
52,58	2,222	766,69	849,72	-0,8347	
52,60	2,226	763,81	850,04	-0,8362	
52,62	2,230	762,76	849,96	-0,8377	
52,64	2,234	767,46	849,70	-0,8392	
52,66	2,238	765,93	849,93	-0,8409	
52,68	2,243	762,77	849,99	-0,8424	
52,70	2,246	766,96	849,69	-0,8438	
52,72	2,251	767,38	849,90	-0,8454	
52,74	2,255	762,79	850,16	-0,8469	
52,76	2,259	764,72	849,88	-0,8483	
52,78	2,262	767,59	849,76	-0,8499	
52,80	2,267	763,34	849,98	-0,8515	
52,82	2,270	763,10	849,81	-0,8531	
52,84	2,274	767,07	849,66	-0,8546	
52,86	2,278	764,53	849,99	-0,8561	
52,88	2,282	761,93	850,01	-0,8574	
52,90	2,286	765,50	849,71	-0,8587	
52,92	2,290	764,74	849,90	-0,8603	
52,94	2,294	761,18	850,05	-0,8618	
52,96	2,298	764,83	849,74	-0,8633	
52,98	2,302	767,02	849,86	-0,8650	
53,00	2,306	763,15	850,15	-0,8666	
53,02	2,310	763,70	849,90	-0,8680	
53,04	2,314	766,63	849,76	-0,8694	
53,06	2,318	763,46	850,04	-0,8709	
53,08	2,322	762,77	849,92	-0,8723	
53,10	2,326	767,13	849,72	-0,8739	
53,12	2,330	765,28	850,00	-0,8755	
53,14	2,335	762,63	850,00	-0,8770	
53,16	2,338	766,39	849,73	-0,8786	
53,18	2,343	765,35	849,94	-0,8802	
53,20	2,347	761,41	850,03	-0,8816	
53,22	2,351	764,72	849,72	-0,8830	
53,24	2,355	766,10	849,83	-0,8845	
53,26	2,359	762,36	850,03	-0,8860	
53,28	2,362	763,95	849,77	-0,8874	
53,30	2,366	766,74	849,77	-0,8890	
53,32	2,370	762,88	850,08	-0,8906	
53,34	2,374	762,26	849,91	-0,8921	
53,36	2,378	765,70	849,72	-0,8936	
53,38	2,382	763,09	849,98	-0,8950	
53,40	2,386	761,67	849,92	-0,8964	
53,42	2,390	766,72	849,67	-0,8979	
53,44	2,394	765,68	849,99	-0,8995	
53,46	2,398	761,42	850,15	-0,9010	
53,48	2,402	764,22	849,80	-0,9025	
53,50	2,406	766,10	849,84	-0,9040	
53,52	2,410	762,62	850,10	-0,9055	
53,54	2,414	763,54	849,86	-0,9069	
53,56	2,418	766,68	849,76	-0,9084	
53,58	2,422	763,36	850,15	-0,9099	
53,60	2,427	761,58	850,11	-0,9114	
53,62	2,430	766,08	849,77	-0,9129	
53,64	2,435	765,25	850,01	-0,9145	
53,66	2,439	761,38	850,16	-0,9160	
53,68	2,443	764,34	849,82	-0,9173	
53,70	2,447	766,23	849,80	-0,9188	
53,72	2,451	762,29	849,97	-0,9203	
53,74	2,455	763,20	849,72	-0,9218	
53,76	2,458	766,43	849,74	-0,9234	
53,78	2,462	762,86	850,14	-0,9249	
53,80	2,466	762,07	850,04	-0,9263	
53,82	2,470	766,71	849,75	-0,9277	
53,84	2,474	765,40	850,06	-0,9292	
53,86	2,478	761,76	850,16	-0,9307	
53,88	2,482	765,06	849,80	-0,9321	
53,90	2,486	765,45	849,90	-0,9337	
53,92	2,490	761,33	850,13	-0,9352	
53,94	2,494	762,92	849,84	-0,9367	
53,96	2,498	765,92	849,80	-0,9382	
53,98	2,502	762,50	850,19	-0,9397	
54,00	2,506	761,93	850,08	-0,9410	
54,02	2,510	766,12	849,79	-0,9425	
54,04	2,514	763,91	850,02	-0,9441	
54,06	2,519	760,84	850,04	-0,9456	
54,08	2,522	764,80	849,73	-0,9470	
54,10	2,527	765,29	849,92	-0,9486	
54,12	2,531	761,45	850,09	-0,9501	
54,14	2,534	763,77	849,79	-0,9515	
54,16	2,539	765,77	849,85	-0,9531	
54,18	2,543	762,18	850,10	-0,9546	
54,20	2,547	762,76	849,86	-0,9560	
54,22	2,551	765,63	849,77	-0,9574	
54,24	2,555	762,43	850,04	-0,9590	
54,26	2,558	762,02	849,90	-0,9605	
54,28	2,562	765,56	849,72	-0,9620	
54,30	2,566	762,86	850,03	-0,9634	
54,32	2,570	760,25	850,02	-0,9648	
54,34	2,574	764,51	849,72	-0,9661	
54,36	2,578	764,58	849,90	-0,9677	
54,38	2,582	761,24	850,03	-0,9693	
54,40	2,586	764,33	849,72	-0,9708	
54,42	2,590	765,74	849,92	-0,9724	
54,44	2,594	761,49	850,27	-0,9739	
54,46	2,598	762,22	850,01	-0,9752	
54,48	2,602	766,25	849,79	-0,9767	
54,50	2,606	763,34	850,17	-0,9782	
54,52	2,611	761,35	850,19	-0,9797	
54,54	2,614	765,95	849,79	-0,9811	
54,56	2,619	765,28	849,92	-0,9828	
54,58	2,623	760,82	850,14	-0,9843	
54,60	2,626	763,30	849,84	-0,9856	
54,62	2,631	765,90	849,78	-0,9870	
54,64	2,635	762,24	850,04	-0,9885	
54,66	2,638	762,02	849,86	-0,9899	
54,68	2,642	765,61	849,73	-0,9914	
54,70	2,646	763,06	850,09	-0,9930	
54,72	2,650	761,05	850,07	-0,9945	
54,74	2,654	765,17	849,73	-0,9960	
54,76	2,658	764,74	849,88	-0,9976	
54,78	2,662	761,17	850,00	-0,9990	
54,80	2,666	764,17	849,70	-1,000	
54,82	2,670	765,04	849,82	-1,002	
54,84	2,674	760,86	850,09	-1,003	
54,86	2,678	762,09	849,86	-1,005	
54,88	2,682	764,99	849,76	-1,006	
54,90	2,686	761,96	850,03	-1,008	
54,92	2,690	761,87	849,89	-1,009	
54,94	2,694	765,72	849,73	-1,011	
54,96	2,698	763,12	850,11	-1,012	
54,98	2,702	760,26	850,16	-1,014	
55,00	2,706	764,58	849,79	-1,015	
55,02	2,710	764,68	850,04	-1,017	
55,04	2,715	760,01	850,40	-1,018	
55,06	2,719	761,64	850,09	-1,020	
55,08	2,722	765,73	849,78	-1,021	
55,10	2,727	762,49	850,22	-1,023	
55,12	2,731	759,86	850,41	-1,024	
55,14	2,735	763,65	849,96	-1,025	
55,16	2,739	765,22	849,85	-1,027	
55,18	2,742	760,45	850,23	-1,029	
55,20	2,746	760,53	850,13	-1,030	
55,22	2,750	764,95	849,76	-1,031	
55,24	2,754	762,72	850,08	-1,033	
55,26	2,758	758,41	850,34	-1,034	
55,28	2,762	761,54	849,96	-1,036	
55,30	2,766	764,41	849,87	-1,037	
55,32	2,770	759,88	850,44	-1,039	
55,34	2,774	758,84	850,52	-1,040	
55,36	2,778	763,87	849,97	-1,042	
55,38	2,782	764,96	849,96	-1,043	
55,40	2,786	759,95	850,50	-1,045	
55,42	2,790	760,66	850,46	-1,046	
55,44	2,794	765,46	849,90	-1,048	
55,46	2,798	764,57	850,02	-1,049	
55,48	2,803	759,06	850,51	-1,051	
55,50	2,807	760,72	850,35	-1,052	
55,52	2,810	765,58	849,83	-1,053	
55,54	2,814	763,09	850,08	-1,055	
55,56	2,819	758,37	850,45	-1,057	
55,58	2,823	761,18	850,14	-1,058	
55,60	2,827	765,31	849,83	-1,059	
55,62	2,831	761,16	850,33	-1,061	
55,64	2,834	758,23	850,55	-1,062	
55,66	2,838	762,33	850,07	-1,064	
55,68	2,842	763,76	849,85	-1,065	
55,70	2,846	758,39	850,34	-1,067	
55,72	2,850	757,90	850,41	-1,068	
55,74	2,854	763,25	849,90	-1,070	
55,76	2,858	763,46	849,99	-1,071	
55,78	2,862	757,82	850,53	-1,073	
55,80	2,866	758,14	850,43	-1,074	
55,82	2,870	762,91	849,87	-1,075	
55,84	2,874	762,03	850,02	-1,077	
55,86	2,878	758,35	850,43	-1,079	
55,88	2,882	761,07	850,18	-1,080	
55,90	2,886	764,57	849,82	-1,082	
55,92	2,890	760,40	850,25	-1,083	
55,94	2,895	756,85	850,52	-1,084	
55,96	2,898	760,74	850,09	-1,086	
55,98	2,902	763,03	849,86	-1,087	
56,00	2,907	758,52	850,27	-1,089	
56,02	2,911	757,81	850,28	-1,090	
56,04	2,914	763,00	849,83	-1,092	
56,06	2,919	762,30	850,04	-1,093	
56,08	2,923	757,32	850,47	-1,095	
56,10	2,927	758,83	850,23	-1,096	
56,12	2,930	763,34	849,80	-1,097	
56,14	2,934	760,27	850,26	-1,099	
56,16	2,938	756,76	850,67	-1,101	
56,18	2,942	759,64	850,30	-1,102	
56,20	2,946	763,20	849,83	-1,103	
56,22	2,950	759,90	850,22	-1,105	
56,24	2,954	757,35	850,50	-1,106	
56,26	2,958	760,66	850,08	-1,108	
56,28	2,962	762,57	849,84	-1,109	
56,30	2,966	757,55	850,33	-1,111	
56,32	2,970	755,90	850,43	-1,112	
56,34	2,974	760,61	849,93	-1,114	
56,36	2,978	761,99	849,93	-1,115	
56,38	2,982	757,54	850,38	-1,117	
56,40	2,986	757,94	850,24	-1,118	
56,42	2,990	762,08	849,80	-1,120	
56,44	2,994	759,60	850,15	-1,121	
56,46	2,999	755,38	850,53	-1,123	
56,48	3,003	758,53	850,20	-1,124	
56,50	3,006	762,40	849,82	-1,125	
56,52	3,011	758,44	850,26	-1,127	
56,54	3,015	756,37	850,47	-1,128	
56,56	3,019	760,54	850,02	-1,130	
56,58	3,023	762,15	849,86	-1,131	
56,60	3,027	756,82	850,29	-1,133	
56,62	3,031	756,21	850,26	-1,134	
56,64	3,034	761,22	849,80	-1,135	
56,66	3,038	760,37	849,99	-1,137	
56,68	3,042	755,78	850,36	-1,139	
56,70	3,046	758,03	850,09	-1,140	
56,72	3,050	761,87	849,81	-1,141	
56,74	3,054	758,23	850,21	-1,143	
56,76	3,058	755,80	850,33	-1,144	
56,78	3,062	760,86	849,87	-1,146	
56,80	3,066	762,12	850,03	-1,147	
56,82	3,070	756,63	850,63	-1,149	
56,84	3,074	756,66	850,55	-1,150	
56,86	3,078	761,62	849,93	-1,152	
56,88	3,082	761,28	850,08	-1,153	
56,90	3,087	756,40	850,73	-1,155	
56,92	3,091	757,76	850,67	-1,156	
56,94	3,094	761,35	850,01	-1,157	
56,96	3,098	760,27	849,99	-1,159	
56,98	3,103	755,17	850,71	-1,161	
57,00	3,107	755,99	850,81	-1,162	
57,02	3,111	759,37	850,18	-1,163	
57,04	3,114	760,48	849,90	-1,165	
57,06	3,118	756,38	850,67	-1,166	
57,08	3,122	756,01	851,03	-1,168	
57,10	3,126	758,74	850,54	-1,169	
57,12	3,130	760,96	849,88	-1,170	
57,14	3,134	757,80	850,19	-1,172	
57,16	3,138	755,49	850,69	-1,174	
57,18	3,142	757,88	850,41	-1,175	
57,20	3,146	760,70	849,85	-1,176	
57,22	3,150	757,69	850,22	-1,178	
57,24	3,154	754,18	850,72	-1,179	
57,26	3,158	756,57	850,45	-1,181	
57,28	3,162	760,25	849,87	-1,182	
57,30	3,166	757,77	850,22	-1,184	
57,32	3,170	754,27	850,76	-1,185	
57,34	3,174	756,55	850,51	-1,187	
57,36	3,178	760,24	849,90	-1,188	
57,38	3,182	757,87	850,20	-1,189	
57,40	3,187	754,28	850,77	-1,191	
57,42	3,191	756,53	850,57	-1,192	
57,44	3,194	760,32	849,91	-1,194	
57,46	3,199	759,26	850,21	-1,195	
57,48	3,203	754,52	851,04	-1,197	
57,50	3,207	754,99	851,06	-1,198	
57,52	3,211	756,99	850,36	-1,199	
57,54	3,215	757,73	849,86	-1,201	
57,56	3,219	754,93	850,32	-1,202	
57,58	3,223	755,53	850,59	-1,204	
57,60	3,226	758,91	850,12	-1,205	
57,62	3,230	759,90	849,86	-1,207	
57,64	3,234	754,34	850,45	-1,208	
57,66	3,238	752,50	850,65	-1,210	
57,68	3,242	757,01	850,12	-1,211	
57,70	3,246	759,52	849,93	-1,213	
57,72	3,250	754,76	850,73	-1,214	
57,74	3,254	753,21	851,07	-1,216	
57,76	3,258	755,88	850,56	-1,217	
57,78	3,262	758,00	849,89	-1,218	
57,80	3,266	755,10	850,26	-1,220	
57,82	3,270	752,98	850,88	-1,221	
57,84	3,274	754,85	850,68	-1,223	
57,86	3,278	757,29	849,99	-1,224	
57,88	3,282	756,00	850,11	-1,226	
57,90	3,287	752,19	850,89	-1,227	
57,92	3,291	753,51	850,95	-1,228	
57,94	3,295	756,36	850,28	-1,230	
57,96	3,298	757,22	849,90	-1,231	
57,98	3,303	753,16	850,52	-1,233	
58,00	3,307	752,74	850,82	-1,234	
58,02	3,310	755,39	850,32	-1,235	
58,04	3,314	757,53	849,83	-1,237	
58,06	3,318	753,62	850,56	-1,239	
58,08	3,322	751,37	851,24	-1,240	
58,10	3,326	754,20	850,96	-1,241	
58,12	3,330	756,95	850,16	-1,243	
58,14	3,334	756,34	849,91	-1,244	
58,16	3,338	753,82	850,56	-1,246	
58,18	3,342	754,66	850,74	-1,247	
58,20	3,346	756,73	850,19	-1,248	
58,22	3,350	757,30	849,88	-1,250	
58,24	3,354	753,45	850,47	-1,252	
58,26	3,358	753,02	850,71	-1,253	
58,28	3,362	756,93	850,19	-1,254	
58,30	3,366	757,94	849,92	-1,256	
58,32	3,371	752,58	850,51	-1,257	
58,34	3,375	751,05	850,71	-1,259	
58,36	3,379	754,68	850,17	-1,260	
58,38	3,382	756,75	849,88	-1,262	
58,40	3,387	752,67	850,47	-1,263	
58,42	3,391	752,27	850,70	-1,264	
58,44	3,395	757,04	850,17	-1,266	
58,46	3,398	759,96	849,85	-1,267	
58,48	3,402	754,70	850,54	-1,269	
58,50	3,406	751,83	850,90	-1,270	
58,52	3,410	754,42	850,42	-1,272	
58,54	3,414	757,22	849,88	-1,273	
58,56	3,418	753,99	850,52	-1,275	
58,58	3,422	752,13	851,17	-1,276	
58,60	3,426	754,58	850,90	-1,277	
58,62	3,430	756,96	850,11	-1,279	
58,64	3,434	756,26	849,94	-1,280	
58,66	3,438	752,68	850,84	-1,282	
58,68	3,442	752,07	851,21	-1,283	
58,70	3,446	753,09	850,70	-1,285	
58,72	3,450	754,38	849,94	-1,286	
58,74	3,454	753,29	850,17	-1,288	
58,76	3,458	752,01	850,86	-1,289	
58,78	3,463	754,19	850,80	-1,290	
58,80	3,466	756,87	850,10	-1,292	
58,82	3,470	756,54	850,04	-1,293	
58,84	3,475	751,37	851,00	-1,295	
58,86	3,479	750,57	851,37	-1,296	
58,88	3,483	752,50	850,83	-1,297	
58,90	3,487	754,27	850,00	-1,299	
58,92	3,491	753,85	850,05	-1,300	
58,94	3,495	752,77	850,76	-1,302	
58,96	3,499	754,51	850,80	-1,303	
58,98	3,502	756,77	850,15	-1,305	
59,00	3,506	756,76	849,92	-1,306	
59,02	3,510	752,05	850,66	-1,308	
59,04	3,514	751,93	850,96	-1,309	
59,06	3,518	754,12	850,43	-1,310	
59,08	3,522	755,67	849,86	-1,312	
59,10	3,526	751,89	850,50	-1,313	
59,12	3,530	749,79	851,18	-1,315	
59,14	3,534	751,68	850,93	-1,316	
59,16	3,538	753,81	850,14	-1,318	
59,18	3,542	753,65	849,99	-1,319	
59,20	3,546	751,08	850,80	-1,321	
59,22	3,551	751,54	851,08	-1,322	
59,24	3,555	753,09	850,51	-1,323	
59,26	3,558	754,39	849,88	-1,325	
59,28	3,563	751,09	850,40	-1,326	
59,30	3,567	749,59	851,04	-1,328	
59,32	3,571	751,75	850,80	-1,329	
59,34	3,575	754,02	850,05	-1,330	
59,36	3,579	753,27	849,99	-1,332	
59,38	3,583	750,34	850,67	-1,333	
59,40	3,586	752,18	850,77	-1,335	
59,42	3,590	755,83	850,15	-1,336	
59,44	3,595	756,63	849,93	-1,337	
59,46	3,598	752,11	850,74	-1,339	
59,48	3,602	751,90	851,12	-1,340	
59,50	3,606	753,95	850,62	-1,342	
59,52	3,610	755,10	849,92	-1,343	
59,54	3,614	752,39	850,32	-1,344	
59,56	3,618	750,08	851,04	-1,346	
59,58	3,622	751,58	850,92	-1,347	
59,60	3,626	753,64	850,18	-1,349	
59,62	3,630	753,53	849,95	-1,350	
59,64	3,634	749,78	850,68	-1,352	
59,66	3,638	750,12	850,96	-1,353	
59,68	3,642	752,55	850,41	-1,354	
59,70	3,646	754,34	849,86	-1,356	
59,72	3,650	751,09	850,47	-1,357	
59,74	3,655	749,56	851,07	-1,359	
59,76	3,659	751,70	850,76	-1,360	
59,78	3,662	754,06	850,00	-1,361	
59,80	3,666	752,88	850,10	-1,363	
59,82	3,671	749,49	850,97	-1,365	
59,84	3,675	750,66	851,12	-1,366	
59,86	3,679	752,93	850,47	-1,367	
59,88	3,683	754,26	849,89	-1,368	
59,90	3,687	750,63	850,35	-1,370	
59,92	3,691	749,56	850,79	-1,371	
59,94	3,695	751,86	850,42	-1,373	
59,96	3,698	754,19	849,85	-1,374	
59,98	3,702	751,11	850,43	-1,376	
60,00	3,706	747,95	851,20	-1,377	
60,02	3,710	750,22	851,02	-1,378	
60,04	3,714	753,11	850,24	-1,380	
60,06	3,718	754,07	849,87	-1,381	
60,08	3,722	751,05	850,70	-1,383	
60,10	3,726	750,51	851,21	-1,384	
60,12	3,730	752,36	850,79	-1,385	
60,14	3,734	754,21	850,00	-1,387	
60,16	3,738	752,74	850,14	-1,388	
60,18	3,743	749,28	850,99	-1,390	
60,20	3,747	750,53	851,08	-1,391	
60,22	3,751	752,92	850,41	-1,392	
60,24	3,754	754,25	849,88	-1,394	
60,26	3,759	750,53	850,48	-1,395	
60,28	3,763	749,40	850,97	-1,397	
60,30	3,767	751,67	850,60	-1,398	
60,32	3,770	754,06	849,91	-1,399	
60,34	3,775	751,87	850,28	-1,401	
60,36	3,779	748,63	851,05	-1,403	
60,38	3,782	750,37	850,98	-1,404	
60,40	3,786	753,09	850,24	-1,405	
60,42	3,790	753,85	849,93	-1,407	
60,44	3,794	749,52	850,80	-1,408	
60,46	3,798	747,97	851,29	-1,410	
60,48	3,802	749,24	850,84	-1,411	
60,50	3,806	750,81	850,02	-1,412	
60,52	3,810	749,86	850,07	-1,414	
60,54	3,814	747,48	850,92	-1,415	
60,56	3,818	748,34	851,08	-1,416	
60,58	3,822	749,77	850,43	-1,418	
60,60	3,826	750,87	849,86	-1,419	
60,62	3,830	748,15	850,52	-1,421	
60,64	3,835	747,49	851,21	-1,422	
60,66	3,839	749,05	850,96	-1,423	
60,68	3,842	750,46	850,16	-1,425	
60,70	3,846	750,23	849,96	-1,426	
60,72	3,851	747,73	850,79	-1,428	
60,74	3,855	748,13	851,13	-1,429	
60,76	3,859	749,64	850,59	-1,430	
60,78	3,863	751,15	849,88	-1,432	
60,80	3,867	749,38	850,23	-1,433	
60,82	3,871	748,04	850,88	-1,435	
60,84	3,875	750,61	850,72	-1,436	
60,86	3,878	753,66	850,00	-1,437	
60,88	3,882	752,77	850,10	-1,439	
60,90	3,886	747,77	851,00	-1,440	
60,92	3,890	748,01	851,18	-1,442	
60,94	3,894	750,02	850,54	-1,443	
60,96	3,898	751,31	849,87	-1,444	
60,98	3,902	749,16	850,35	-1,446	
61,00	3,906	748,36	851,01	-1,447	
61,02	3,910	749,35	850,80	-1,449	
61,04	3,914	750,71	850,05	-1,450	
61,06	3,918	749,74	850,02	-1,451	
61,08	3,922	746,86	850,74	-1,453	
61,10	3,927	748,32	850,83	-1,454	
61,12	3,930	750,89	850,20	-1,455	
61,14	3,934	751,49	849,92	-1,457	
61,16	3,939	747,13	850,63	-1,458	
61,18	3,943	746,98	850,94	-1,460	
61,20	3,947	749,77	850,41	-1,461	
61,22	3,950	751,32	849,86	-1,462	
61,24	3,955	747,76	850,48	-1,464	
61,26	3,959	746,06	851,12	-1,465	
61,28	3,963	748,21	850,85	-1,467	
61,30	3,967	750,46	850,06	-1,468	
61,32	3,971	749,94	850,01	-1,469	
61,34	3,974	746,91	850,90	-1,471	
61,36	3,978	747,64	851,17	-1,472	
61,38	3,982	749,45	850,59	-1,474	
61,40	3,986	750,94	849,89	-1,475	
61,42	3,990	748,83	850,29	-1,476	
61,44	3,994	747,56	850,93	-1,478	
61,46	3,998	748,86	850,74	-1,479	
61,48	4,002	750,70	850,02	-1,480	
61,50	4,006	749,45	850,08	-1,482	
61,52	4,010	745,43	850,89	-1,483	
61,54	4,014	746,56	851,02	-1,485	
61,56	4,018	749,40	850,37	-1,486	
61,58	4,022	751,06	849,88	-1,487	
61,60	4,026	747,37	850,60	-1,489	
61,62	4,031	746,21	851,18	-1,490	
61,64	4,035	748,46	850,83	-1,492	
61,66	4,038	750,64	850,04	-1,493	
61,68	4,042	749,51	850,06	-1,494	
61,70	4,047	745,76	850,89	-1,496	
61,72	4,051	746,10	851,03	-1,497	
61,74	4,055	747,28	850,39	-1,498	
61,76	4,059	747,93	849,85	-1,500	
61,78	4,063	744,97	850,49	-1,501	
61,80	4,067	744,54	851,09	-1,503	
61,82	4,070	746,59	850,78	-1,504	
61,84	4,074	748,56	850,02	-1,505	
61,86	4,078	747,29	850,09	-1,507	
61,88	4,082	744,72	850,92	-1,509	
61,90	4,086	746,77	851,06	-1,510	
61,92	4,090	748,75	850,42	-1,511	
61,94	4,094	749,29	849,87	-1,512	
61,96	4,098	745,65	850,53	-1,514	
61,98	4,102	744,49	851,19	-1,515	
62,00	4,106	745,86	850,92	-1,516	
62,02	4,110	747,31	850,13	-1,518	
62,04	4,114	746,57	850,04	-1,519	
62,06	4,118	744,17	850,80	-1,521	
62,08	4,123	744,95	850,96	-1,522	
62,10	4,126	746,52	850,34	-1,523	
62,12	4,130	747,54	849,90	-1,525	
62,14	4,134	743,83	850,70	-1,526	
62,16	4,138	742,75	851,34	-1,528	
62,18	4,142	745,04	851,01	-1,529	
62,20	4,146	747,01	850,18	-1,530	
62,22	4,150	747,02	849,97	-1,532	
62,24	4,155	744,99	850,83	-1,533	
62,26	4,159	745,33	851,20	-1,535	
62,28	4,163	746,40	850,67	-1,536	
62,30	4,166	747,58	849,92	-1,537	
62,32	4,170	745,86	850,21	-1,539	
62,34	4,174	744,11	850,96	-1,540	
62,36	4,178	745,27	850,90	-1,541	
62,38	4,182	746,90	850,17	-1,543	
62,40	4,186	747,26	849,93	-1,544	
62,42	4,190	743,50	850,92	-1,546	
62,44	4,194	742,88	851,48	-1,547	
62,46	4,198	745,17	851,05	-1,548	
62,48	4,202	746,06	850,19	-1,550	
62,50	4,206	745,14	849,93	-1,551	
62,52	4,210	744,30	850,67	-1,553	
62,54	4,214	745,43	850,95	-1,554	
62,56	4,218	746,62	850,40	-1,555	
62,58	4,222	747,56	849,88	-1,557	
62,60	4,226	743,57	850,55	-1,558	
62,62	4,230	741,85	851,17	-1,560	
62,64	4,234	744,35	850,86	-1,561	
62,66	4,238	746,97	850,07	-1,562	
62,68	4,242	746,15	850,04	-1,564	
62,70	4,247	742,65	850,85	-1,565	
62,72	4,250	743,69	851,01	-1,566	
62,74	4,254	746,04	850,38	-1,568	
62,76	4,258	747,60	849,85	-1,569	
62,78	4,262	743,89	850,65	-1,571	
62,80	4,266	741,83	851,43	-1,572	
62,82	4,270	743,06	851,20	-1,573	
62,84	4,274	743,79	850,39	-1,574	
62,86	4,278	744,35	849,85	-1,576	
62,88	4,282	743,26	850,49	-1,577	
62,90	4,286	743,14	851,02	-1,579	
62,92	4,290	744,93	850,65	-1,580	
62,94	4,294	747,21	849,92	-1,581	
62,96	4,298	745,26	850,27	-1,583	
62,98	4,302	741,54	851,16	-1,584	
63,00	4,306	742,36	851,18	-1,585	
63,02	4,310	743,74	850,46	-1,587	
63,04	4,314	744,39	849,87	-1,588	
63,06	4,318	741,41	850,45	-1,590	
63,08	4,322	740,99	851,01	-1,591	
63,10	4,326	744,01	850,69	-1,592	
63,12	4,330	746,96	849,96	-1,593	
63,14	4,334	745,25	850,20	-1,595	
63,16	4,339	741,76	851,07	-1,597	
63,18	4,343	743,00	851,12	-1,598	
63,20	4,346	744,10	850,43	-1,599	
63,22	4,350	744,40	849,84	-1,600	
63,24	4,354	741,34	850,49	-1,602	
63,26	4,358	740,54	851,15	-1,603	
63,28	4,362	742,08	850,88	-1,604	
63,30	4,366	743,64	850,10	-1,606	
63,32	4,370	742,98	850,04	-1,607	
63,34	4,374	739,94	850,93	-1,609	
63,36	4,378	740,63	851,20	-1,610	
63,38	4,382	742,47	850,62	-1,611	
63,40	4,386	744,09	849,90	-1,612	
63,42	4,390	742,13	850,37	-1,614	
63,44	4,394	740,73	851,22	-1,615	
63,46	4,398	742,00	851,15	-1,617	
63,48	4,402	743,24	850,41	-1,618	
63,50	4,406	744,21	849,86	-1,619	
63,52	4,410	742,15	850,52	-1,621	
63,54	4,414	741,54	851,11	-1,622	
63,56	4,418	742,60	850,79	-1,623	
63,58	4,422	743,94	850,02	-1,624	
63,60	4,426	742,63	850,12	-1,626	
63,62	4,431	739,17	851,02	-1,628	
63,64	4,435	740,27	851,19	-1,629	
63,66	4,439	742,51	850,54	-1,630	
63,68	4,442	744,09	849,87	-1,631	
63,70	4,446	741,30	850,36	-1,633	
63,72	4,450	739,96	851,00	-1,634	
63,74	4,454	741,72	850,77	-1,635	
63,76	4,458	743,79	850,03	-1,637	
63,78	4,462	742,68	850,11	-1,638	
63,80	4,466	739,18	851,00	-1,640	
63,82	4,470	740,29	851,18	-1,641	
63,84	4,474	742,60	850,54	-1,642	
63,86	4,478	744,16	849,90	-1,643	
63,88	4,482	740,79	850,42	-1,645	
63,90	4,486	739,40	851,05	-1,646	
63,92	4,490	741,57	850,79	-1,648	
63,94	4,494	743,86	850,03	-1,649	
63,96	4,498	742,79	850,11	-1,650	
63,98	4,502	739,26	850,98	-1,652	
64,00	4,506	740,29	851,14	-1,653	
64,02	4,510	742,66	850,48	-1,654	
64,04	4,514	743,92	849,88	-1,656	
64,06	4,518	739,89	850,49	-1,657	
64,08	4,523	738,21	851,13	-1,659	
64,10	4,527	739,73	850,85	-1,660	
64,12	4,530	740,99	850,06	-1,661	
64,14	4,534	739,89	850,08	-1,662	
64,16	4,539	737,39	850,98	-1,664	
64,18	4,542	738,19	851,19	-1,665	
64,20	4,546	739,67	850,56	-1,666	
64,22	4,550	741,01	849,87	-1,667	
64,24	4,554	738,55	850,39	-1,669	
64,26	4,558	737,66	851,15	-1,670	
64,28	4,562	739,02	850,98	-1,672	
64,30	4,566	740,33	850,21	-1,673	
64,32	4,570	740,35	849,94	-1,674	
64,34	4,574	737,73	850,84	-1,676	
64,36	4,578	737,93	851,30	-1,677	
64,38	4,582	739,40	850,82	-1,678	
64,40	4,586	740,75	850,00	-1,679	
64,42	4,590	739,44	850,11	-1,681	
64,44	4,594	737,49	850,92	-1,683	
64,46	4,598	738,42	851,00	-1,684	
64,48	4,602	739,82	850,34	-1,685	
64,50	4,606	740,83	849,90	-1,686	
64,52	4,610	737,24	850,77	-1,688	
64,54	4,615	735,99	851,46	-1,689	
64,56	4,619	737,27	851,14	-1,690	
64,58	4,622	737,61	850,30	-1,691	
64,60	4,626	737,44	849,89	-1,693	
64,62	4,631	736,80	850,56	-1,694	
64,64	4,635	738,30	850,93	-1,696	
64,66	4,639	739,85	850,45	-1,697	
64,68	4,642	741,00	849,87	-1,698	
64,70	4,646	736,95	850,41	-1,700	
64,72	4,650	734,67	851,00	-1,701	
64,74	4,654	737,45	850,71	-1,702	
64,76	4,658	740,49	849,98	-1,703	
64,78	4,662	738,97	850,19	-1,705	
64,80	4,666	735,40	851,06	-1,706	
64,82	4,670	736,94	851,13	-1,708	
64,84	4,674	739,54	850,45	-1,709	
64,86	4,678	740,73	849,89	-1,710	
64,88	4,682	736,73	850,55	-1,712	
64,90	4,686	735,65	851,18	-1,713	
64,92	4,690	737,55	850,87	-1,714	
64,94	4,694	739,46	850,07	-1,715	
64,96	4,698	737,88	850,09	-1,717	
64,98	4,702	734,46	850,96	-1,718	
65,00	4,706	734,85	851,14	-1,720	
65,02	4,710	736,25	850,50	-1,721	
65,04	4,714	737,61	849,84	-1,722	
65,06	4,718	734,79	850,50	-1,723	
65,08	4,723	733,32	851,41	-1,725	
65,10	4,726	735,10	851,32	-1,726	
65,12	4,730	736,61	850,55	-1,727	
65,14	4,734	737,81	849,89	-1,729	
65,16	4,738	736,41	850,51	-1,730	
65,18	4,742	735,55	851,26	-1,731	
65,20	4,746	736,12	851,07	-1,733	
65,22	4,750	737,06	850,28	-1,734	
65,24	4,754	737,09	849,93	-1,735	
65,26	4,758	734,50	850,63	-1,737	
65,28	4,762	734,64	850,96	-1,738	
65,30	4,766	736,14	850,45	-1,739	
65,32	4,770	737,53	849,89	-1,741	
65,34	4,774	734,36	850,59	-1,742	
65,36	4,778	732,55	851,33	-1,743	
65,38	4,782	734,60	851,09	-1,745	
65,40	4,786	736,71	850,27	-1,746	
65,42	4,790	737,03	849,94	-1,747	
65,44	4,794	734,45	850,70	-1,749	
65,46	4,798	734,54	851,08	-1,750	
65,48	4,802	735,97	850,58	-1,751	
65,50	4,806	737,52	849,88	-1,752	
65,52	4,810	734,88	850,41	-1,754	
65,54	4,815	731,83	851,31	-1,755	
65,56	4,819	733,60	851,26	-1,757	
65,58	4,823	736,11	850,50	-1,758	
65,60	4,826	736,79	849,89	-1,759	
65,62	4,830	733,91	850,49	-1,761	
65,64	4,835	733,37	851,07	-1,762	
65,66	4,838	735,33	850,76	-1,763	
65,68	4,842	737,30	850,00	-1,764	
65,70	4,846	736,12	850,18	-1,766	
65,72	4,850	732,54	851,14	-1,767	
65,74	4,854	733,26	851,29	-1,768	
65,76	4,858	734,17	850,63	-1,770	
65,78	4,862	734,66	849,89	-1,771	
65,80	4,866	732,52	850,32	-1,772	
65,82	4,870	732,48	851,03	-1,774	
65,84	4,874	734,96	850,86	-1,775	
65,86	4,878	737,10	850,10	-1,776	
65,88	4,882	736,23	850,09	-1,778	
65,90	4,886	731,79	851,03	-1,779	
65,92	4,890	731,84	851,30	-1,780	
65,94	4,894	733,33	850,69	-1,781	
65,96	4,898	734,44	849,92	-1,783	
65,98	4,902	732,61	850,27	-1,784	
66,00	4,907	731,54	851,08	-1,785	
66,02	4,911	732,53	851,03	-1,787	
66,04	4,915	733,66	850,29	-1,788	
66,06	4,918	734,01	849,91	-1,789	
66,08	4,922	731,33	850,66	-1,791	
66,10	4,926	731,96	851,09	-1,792	
66,12	4,930	734,97	850,62	-1,793	
66,14	4,934	737,41	849,90	-1,794	
66,16	4,938	734,40	850,33	-1,796	
66,18	4,942	731,17	851,17	-1,797	
66,20	4,946	732,38	851,10	-1,799	
66,22	4,950	733,69	850,33	-1,800	
66,24	4,954	734,05	849,92	-1,801	
66,26	4,958	731,30	850,78	-1,803	
66,28	4,962	731,01	851,38	-1,804	
66,30	4,966	732,48	851,00	-1,805	
66,32	4,970	733,72	850,16	-1,806	
66,34	4,974	733,98	849,96	-1,808	
66,36	4,978	732,47	850,93	-1,809	
66,38	4,982	732,56	851,41	-1,810	
66,40	4,986	733,26	850,92	-1,812	
66,42	4,990	734,12	850,07	-1,813	
66,44	4,994	733,56	850,04	-1,814	
66,46	4,999	731,53	850,88	-1,816	
66,48	5,003	731,92	851,05	-1,817	
66,50	5,007	733,14	850,40	-1,818	
66,52	5,010	734,30	849,89	-1,819	
66,54	5,014	730,74	850,64	-1,821	
66,56	5,018	729,34	851,28	-1,822	
66,58	5,022	731,52	850,95	-1,823	
66,60	5,026	733,65	850,12	-1,825	
66,62	5,030	733,33	850,00	-1,826	
66,64	5,034	730,21	850,85	-1,828	
66,66	5,038	730,76	851,12	-1,829	
66,68	5,042	732,75	850,53	-1,830	
66,70	5,046	734,36	849,91	-1,831	
66,72	5,050	730,86	850,58	-1,833	
66,74	5,054	728,72	851,34	-1,834	
66,76	5,058	729,90	851,10	-1,835	
66,78	5,062	730,80	850,27	-1,836	
66,80	5,066	730,44	849,96	-1,838	
66,82	5,070	728,36	850,72	-1,839	
66,84	5,074	729,56	851,06	-1,840	
66,86	5,078	732,19	850,53	-1,841	
66,88	5,082	734,18	849,89	-1,843	
66,90	5,086	730,38	850,55	-1,844	
66,92	5,091	726,93	851,38	-1,846	
66,94	5,095	728,13	851,22	-1,847	
66,96	5,098	729,90	850,41	-1,848	
66,98	5,102	731,09	849,88	-1,849	
67,00	5,107	730,18	850,63	-1,851	
67,02	5,111	729,68	851,26	-1,852	
67,04	5,114	729,87	850,92	-1,853	
67,06	5,118	730,71	850,10	-1,854	
67,08	5,122	729,93	850,10	-1,856	
67,10	5,126	727,54	851,01	-1,857	
67,12	5,130	728,84	851,23	-1,858	
67,14	5,134	730,65	850,60	-1,860	
67,16	5,138	732,96	849,90	-1,861	
67,18	5,142	731,17	850,47	-1,862	
67,20	5,146	729,09	851,34	-1,864	
67,22	5,150	729,30	851,22	-1,865	
67,24	5,154	730,07	850,42	-1,866	
67,26	5,158	730,60	849,93	-1,867	
67,28	5,162	728,54	850,74	-1,869	
67,30	5,166	728,34	851,32	-1,870	
67,32	5,170	729,45	850,90	-1,871	
67,34	5,174	730,73	850,05	-1,872	
67,36	5,178	729,89	850,13	-1,874	
67,38	5,182	727,43	851,03	-1,875	
67,40	5,187	728,21	851,16	-1,876	
67,42	5,190	729,80	850,46	-1,878	
67,44	5,194	730,93	849,90	-1,879	
67,46	5,198	727,31	850,70	-1,880	
67,48	5,203	725,83	851,46	-1,882	
67,50	5,207	728,07	851,19	-1,883	
67,52	5,210	730,11	850,33	-1,884	
67,54	5,214	730,45	849,96	-1,885	
67,56	5,218	728,37	850,80	-1,887	
67,58	5,222	728,54	851,27	-1,888	
67,60	5,226	729,56	850,80	-1,889	
67,62	5,230	730,72	849,98	-1,891	
67,64	5,234	729,06	850,19	-1,892	
67,66	5,238	726,56	851,12	-1,893	
67,68	5,242	727,86	851,22	-1,895	
67,70	5,246	729,62	850,51	-1,896	
67,72	5,250	730,85	849,90	-1,897	
67,74	5,254	727,29	850,63	-1,899	
67,76	5,258	725,70	851,40	-1,900	
67,78	5,262	727,87	851,16	-1,901	
67,80	5,266	729,93	850,31	-1,902	
67,82	5,270	730,38	849,94	-1,903	
67,84	5,274	727,50	850,81	-1,905	
67,86	5,279	727,06	851,32	-1,906	
67,88	5,282	728,83	850,86	-1,907	
67,90	5,286	730,62	850,01	-1,909	
67,92	5,290	729,13	850,17	-1,910	
67,94	5,295	725,90	851,15	-1,912	
67,96	5,299	727,03	851,36	-1,913	
67,98	5,303	729,26	850,69	-1,914	
68,00	5,306	730,91	849,93	-1,915	
68,02	5,310	728,30	850,40	-1,917	
68,04	5,314	725,75	851,22	-1,918	
68,06	5,318	725,95	851,13	-1,919	
68,08	5,322	726,87	850,35	-1,920	
68,10	5,326	727,38	849,92	-1,922	
68,12	5,330	725,26	850,71	-1,923	
68,14	5,334	725,61	851,24	-1,925	
68,16	5,338	727,10	850,82	-1,926	
68,18	5,342	729,42	850,00	-1,927	
68,20	5,346	728,88	850,16	-1,928	
68,22	5,350	726,06	851,04	-1,930	
68,24	5,354	727,18	851,14	-1,931	
68,26	5,358	729,41	850,44	-1,932	
68,28	5,362	730,59	849,90	-1,933	
68,30	5,366	726,65	850,62	-1,935	
68,32	5,370	725,48	851,21	-1,936	
68,34	5,374	727,97	850,85	-1,937	
68,36	5,378	730,39	850,05	-1,938	
68,38	5,382	728,93	850,17	-1,940	
68,40	5,387	724,91	851,10	-1,941	
68,42	5,391	724,88	851,27	-1,943	
68,44	5,394	726,20	850,60	-1,944	
68,46	5,398	727,46	849,89	-1,945	
68,48	5,402	725,08	850,43	-1,947	
68,50	5,406	724,06	851,20	-1,948	
68,52	5,410	725,47	851,04	-1,949	
68,54	5,414	726,85	850,24	-1,950	
68,56	5,418	726,99	849,95	-1,952	
68,58	5,422	724,29	850,86	-1,953	
68,60	5,426	724,35	851,35	-1,954	
68,62	5,430	725,89	850,87	-1,955	
68,64	5,434	727,37	850,03	-1,956	
68,66	5,438	726,84	850,14	-1,958	
68,68	5,442	724,87	851,07	-1,959	
68,70	5,446	725,37	851,23	-1,961	
68,72	5,450	726,49	850,55	-1,962	
68,74	5,454	727,63	849,89	-1,963	
68,76	5,458	724,48	850,50	-1,965	
68,78	5,462	723,44	851,20	-1,966	
68,80	5,466	725,31	850,94	-1,967	
68,82	5,470	727,19	850,12	-1,968	
68,84	5,474	726,45	850,08	-1,969	
68,86	5,479	722,71	851,05	-1,971	
68,88	5,483	723,47	851,36	-1,972	
68,90	5,486	725,81	850,75	-1,973	
68,92	5,490	727,57	849,95	-1,975	
68,94	5,494	725,71	850,31	-1,976	
68,96	5,498	724,05	851,19	-1,977	
68,98	5,502	725,18	851,18	-1,979	
69,00	5,506	726,57	850,43	-1,980	
69,02	5,510	727,39	849,90	-1,981	
69,04	5,514	724,50	850,66	-1,982	
69,06	5,518	723,51	851,28	-1,984	
69,08	5,522	725,27	850,93	-1,985	
69,10	5,526	727,06	850,09	-1,986	
69,12	5,530	725,72	850,09	-1,987	
69,14	5,534	721,71	851,09	-1,989	
69,16	5,538	722,13	851,41	-1,990	
69,18	5,542	723,73	850,80	-1,991	
69,20	5,546	725,98	849,96	-1,992	
69,22	5,550	725,88	850,27	-1,994	
69,24	5,554	724,15	851,32	-1,995	
69,26	5,558	724,51	851,47	-1,997	
69,28	5,562	725,12	850,77	-1,998	
69,30	5,566	726,25	849,95	-1,999	
69,32	5,570	725,91	850,26	-2,000	
69,34	5,575	725,43	851,07	-2,002	
69,36	5,579	726,01	851,03	-2,003	
69,38	5,583	726,77	850,28	-2,004	
69,40	5,586	726,99	849,90	-2,005	
69,42	5,590	723,57	850,75	-2,007	
69,44	5,594	722,95	851,30	-2,008	
69,46	5,598	725,11	850,88	-2,009	
69,48	5,602	727,17	850,05	-2,010	
69,50	5,606	725,89	850,13	-2,012	
69,52	5,610	723,19	851,00	-2,013	
69,54	5,614	724,34	851,12	-2,015	
69,56	5,618	726,23	850,43	-2,016	
69,58	5,622	727,34	849,92	-2,017	
69,60	5,626	723,31	850,83	-2,018	
69,62	5,630	721,10	851,63	-2,020	
69,64	5,634	722,17	851,35	-2,021	
69,66	5,638	723,31	850,47	-2,022	
69,68	5,642	724,35	849,88	-2,023	
69,70	5,646	723,43	850,62	-2,025	
69,72	5,650	722,85	851,29	-2,026	
69,74	5,654	723,12	850,96	-2,027	
69,76	5,658	724,82	850,12	-2,028	
69,78	5,662	724,72	850,11	-2,030	
69,80	5,667	721,73	851,03	-2,031	
69,82	5,671	723,17	851,25	-2,032	
69,84	5,675	725,79	850,60	-2,034	
69,86	5,678	727,35	849,92	-2,035	
69,88	5,682	723,53	850,57	-2,036	
69,90	5,686	721,19	851,41	-2,038	
69,92	5,690	722,15	851,23	-2,039	
69,94	5,694	723,40	850,39	-2,040	
69,96	5,698	724,12	849,91	-2,041	
69,98	5,702	722,56	850,77	-2,043	
70,00	5,706	722,30	851,43	-2,044	
70,02	5,710	722,92	851,07	-2,045	
70,04	5,714	723,79	850,20	-2,046	
70,06	5,718	723,56	850,01	-2,048	
70,08	5,722	721,48	850,84	-2,049	
70,10	5,726	721,79	851,12	-2,050	
70,12	5,730	723,24	850,52	-2,052	
70,14	5,734	725,56	849,90	-2,053	
70,16	5,738	722,93	850,49	-2,054	
70,18	5,742	721,99	851,14	-2,056	
70,20	5,746	724,53	850,87	-2,057	
70,22	5,750	726,98	850,07	-2,058	
70,24	5,754	726,33	850,09	-2,059	
70,26	5,759	722,28	851,03	-2,061	
70,28	5,763	722,28	851,26	-2,062	
70,30	5,767	723,52	850,61	-2,063	
70,32	5,770	724,45	849,91	-2,064	
70,34	5,775	721,77	850,53	-2,066	
70,36	5,779	720,59	851,40	-2,067	
70,38	5,782	721,96	851,26	-2,069	
70,40	5,786	723,15	850,45	-2,070	
70,42	5,790	723,92	849,88	-2,071	
70,44	5,794	721,66	850,65	-2,072	
70,46	5,798	720,77	851,35	-2,074	
70,48	5,802	722,06	851,04	-2,075	
70,50	5,806	723,47	850,19	-2,076	
70,52	5,810	723,31	850,02	-2,077	
70,54	5,814	720,11	851,07	-2,079	
70,56	5,818	720,47	851,55	-2,080	
70,58	5,822	722,38	851,03	-2,081	
70,60	5,826	723,53	850,14	-2,082	
70,62	5,830	722,31	850,08	-2,084	
70,64	5,834	720,79	851,03	-2,085	
70,66	5,838	721,71	851,33	-2,087	
70,68	5,842	722,85	850,72	-2,088	
70,70	5,846	724,04	849,93	-2,089	
70,72	5,850	721,54	850,36	-2,090	
70,74	5,855	719,80	851,30	-2,092	
70,76	5,859	721,44	851,30	-2,093	
70,78	5,862	722,99	850,54	-2,094	
70,80	5,866	723,89	849,91	-2,095	
70,82	5,870	721,31	850,60	-2,097	
70,84	5,874	720,73	851,33	-2,098	
70,86	5,878	722,20	851,06	-2,099	
70,88	5,882	723,54	850,22	-2,100	
70,90	5,886	723,34	850,00	-2,102	
70,92	5,890	719,84	850,97	-2,103	
70,94	5,894	718,82	851,42	-2,105	
70,96	5,898	719,48	850,88	-2,106	
70,98	5,902	720,58	850,02	-2,107	
71,00	5,906	719,58	850,18	-2,108	
71,02	5,910	717,98	851,11	-2,110	
71,04	5,914	718,61	851,25	-2,111	
71,06	5,918	719,61	850,56	-2,112	
71,08	5,922	720,73	849,90	-2,113	
71,10	5,926	718,21	850,53	-2,115	
71,12	5,930	717,15	851,30	-2,116	
71,14	5,934	718,60	851,10	-2,117	
71,16	5,938	720,02	850,29	-2,118	
71,18	5,942	720,27	849,95	-2,120	
71,20	5,947	718,19	850,82	-2,121	
71,22	5,951	718,43	851,30	-2,122	
71,24	5,955	719,56	850,83	-2,123	
71,26	5,958	720,71	850,01	-2,125	
71,28	5,963	719,42	850,24	-2,126	
71,30	5,967	717,33	851,25	-2,128	
71,32	5,970	718,28	851,43	-2,129	
71,34	5,974	719,64	850,73	-2,130	
71,36	5,978	720,87	849,93	-2,131	
71,38	5,982	719,14	850,35	-2,132	
71,40	5,986	718,04	851,24	-2,134	
71,42	5,990	718,97	851,21	-2,135	
71,44	5,994	719,85	850,44	-2,136	
71,46	5,998	720,49	849,91	-2,137	
71,48	6,002	717,91	850,74	-2,139	
71,50	6,006	717,37	851,48	-2,140	
71,52	6,010	718,79	851,17	-2,141	
71,54	6,014	720,01	850,29	-2,142	
71,56	6,018	719,29	849,97	-2,144	
71,58	6,022	715,72	850,89	-2,145	
71,60	6,026	715,95	851,38	-2,147	
71,62	6,030	717,80	850,88	-2,148	
71,64	6,034	719,72	850,02	-2,149	
71,66	6,038	718,48	850,22	-2,150	
71,68	6,043	715,87	851,10	-2,152	
71,70	6,047	716,24	851,16	-2,153	
71,72	6,051	716,95	850,42	-2,154	
71,74	6,054	717,30	849,93	-2,155	
71,76	6,058	714,01	850,70	-2,156	
71,78	6,062	713,32	851,27	-2,158	
71,80	6,066	715,18	850,87	-2,159	
71,82	6,070	717,16	850,04	-2,160	
71,84	6,074	715,91	850,24	-2,161	
71,86	6,078	713,17	851,17	-2,163	
71,88	6,082	714,24	851,26	-2,164	
71,90	6,086	716,09	850,54	-2,165	
71,92	6,090	717,46	849,91	-2,166	
71,94	6,094	714,89	850,57	-2,168	
71,96	6,098	713,84	851,27	-2,169	
71,98	6,102	715,34	850,98	-2,170	
72,00	6,106	716,90	850,13	-2,171	
72,02	6,110	716,58	850,06	-2,173	
72,04	6,114	713,88	851,09	-2,174	
72,06	6,118	714,37	851,49	-2,175	
72,08	6,122	715,85	850,91	-2,176	
72,10	6,126	717,18	850,02	-2,178	
72,12	6,130	716,26	850,16	-2,179	
72,14	6,135	714,04	851,15	-2,181	
72,16	6,139	713,95	851,36	-2,182	
72,18	6,143	715,22	850,69	-2,183	
72,20	6,146	717,05	849,94	-2,184	
72,22	6,150	715,02	850,35	-2,185	
72,24	6,154	713,89	851,05	-2,186	
72,26	6,158	715,32	850,85	-2,188	
72,28	6,162	717,09	850,07	-2,189	
72,30	6,166	716,33	850,11	-2,190	
72,32	6,170	712,56	851,08	-2,192	
72,34	6,174	713,25	851,31	-2,193	
72,36	6,178	715,57	850,65	-2,194	
72,38	6,182	717,42	849,92	-2,195	
72,40	6,186	714,93	850,46	-2,196	
72,42	6,190	713,18	851,26	-2,198	
72,44	6,194	714,80	851,10	-2,199	
72,46	6,198	716,58	850,28	-2,200	
72,48	6,202	716,66	849,98	-2,201	
72,50	6,206	713,40	850,92	-2,203	
72,52	6,210	713,62	851,41	-2,204	
72,54	6,214	715,50	850,92	-2,205	
72,56	6,218	717,09	850,06	-2,206	
72,58	6,222	716,09	850,14	-2,207	
72,60	6,227	713,04	851,09	-2,209	
72,62	6,231	712,39	851,28	-2,210	
72,64	6,235	712,91	850,61	-2,211	
72,66	6,238	714,03	849,90	-2,212	
72,68	6,243	711,69	850,55	-2,214	
72,70	6,247	710,48	851,42	-2,215	
72,72	6,251	711,88	851,28	-2,216	
72,74	6,255	713,17	850,45	-2,217	
72,76	6,258	713,94	849,91	-2,219	
72,78	6,262	712,49	850,69	-2,220	
72,80	6,266	712,29	851,33	-2,221	
72,82	6,270	712,88	850,97	-2,222	
72,84	6,274	713,83	850,12	-2,223	
72,86	6,278	713,14	850,17	-2,225	
72,88	6,282	710,45	851,21	-2,226	
72,90	6,286	711,14	851,50	-2,228	
72,92	6,290	712,73	850,86	-2,229	
72,94	6,294	714,05	849,99	-2,230	
72,96	6,298	713,17	850,24	-2,231	
72,98	6,302	712,05	851,18	-2,233	
73,00	6,306	712,44	851,29	-2,234	
73,02	6,310	713,06	850,58	-2,235	
73,04	6,314	714,08	849,90	-2,236	
73,06	6,318	712,18	850,48	-2,237	
73,08	6,323	711,20	851,22	-2,239	
73,10	6,327	712,25	851,00	-2,240	
73,12	6,330	713,56	850,18	-2,241	
73,14	6,334	713,37	850,00	-2,242	
73,16	6,338	710,09	851,00	-2,244	
73,18	6,342	710,40	851,48	-2,245	
73,20	6,346	712,32	850,97	-2,246	
73,22	6,350	713,93	850,10	-2,247	
73,24	6,354	713,31	850,08	-2,248	
73,26	6,358	711,54	851,00	-2,250	
73,28	6,362	712,00	851,23	-2,251	
73,30	6,366	712,92	850,60	-2,252	
73,32	6,370	714,02	849,92	-2,253	
73,34	6,374	711,08	850,62	-2,255	
73,36	6,378	709,76	851,54	-2,256	
73,38	6,382	711,62	851,40	-2,257	
73,40	6,386	712,26	850,57	-2,258	
73,42	6,390	711,87	849,89	-2,259	
73,44	6,394	710,21	850,54	-2,261	
73,46	6,398	709,40	851,30	-2,262	
73,48	6,402	709,56	851,07	-2,263	
73,50	6,406	710,21	850,23	-2,264	
73,52	6,410	710,09	849,99	-2,265	
73,54	6,415	707,50	850,94	-2,267	
73,56	6,419	707,95	851,42	-2,268	
73,58	6,423	709,36	850,91	-2,269	
73,60	6,426	710,61	850,04	-2,270	
73,62	6,430	710,34	850,21	-2,272	
73,64	6,435	708,83	851,36	-2,273	
73,66	6,438	709,02	851,67	-2,274	
73,68	6,442	709,52	851,02	-2,275	
73,70	6,446	709,07	850,10	-2,276	
73,72	6,450	708,60	850,07	-2,278	
73,74	6,454	708,61	850,99	-2,279	
73,76	6,458	709,28	851,25	-2,280	
73,78	6,462	709,83	850,64	-2,281	
73,80	6,466	710,83	849,93	-2,282	
73,82	6,470	707,71	850,57	-2,284	
73,84	6,474	705,72	851,53	-2,285	
73,86	6,478	706,94	851,46	-2,286	
73,88	6,482	707,28	850,66	-2,287	
73,90	6,486	707,78	849,88	-2,288	
73,92	6,490	707,45	850,39	-2,290	
73,94	6,494	706,87	851,27	-2,291	
73,96	6,498	706,61	851,19	-2,292	
73,98	6,502	706,76	850,40	-2,293	
74,00	6,506	707,19	849,94	-2,295	
74,02	6,510	705,15	850,77	-2,296	
74,04	6,515	704,80	851,38	-2,297	
74,06	6,519	705,88	851,00	-2,298	
74,08	6,522	707,19	850,15	-2,299	
74,10	6,526	706,87	850,10	-2,301	
74,12	6,530	704,68	850,97	-2,302	
74,14	6,534	704,97	851,19	-2,303	
74,16	6,538	706,16	850,55	-2,304	
74,18	6,542	707,47	849,90	-2,305	
74,20	6,546	705,11	850,53	-2,307	
74,22	6,550	703,94	851,32	-2,308	
74,24	6,554	705,28	851,11	-2,309	
74,26	6,558	706,57	850,28	-2,310	
74,28	6,562	706,92	849,94	-2,312	
74,30	6,566	704,77	850,87	-2,313	
74,32	6,570	704,88	851,44	-2,314	
74,34	6,574	706,00	851,01	-2,315	
74,36	6,578	707,08	850,14	-2,316	
74,38	6,582	706,97	850,03	-2,318	
74,40	6,586	705,37	850,86	-2,319	
74,42	6,590	705,53	851,08	-2,320	
74,44	6,594	706,36	850,45	-2,321	
74,46	6,598	707,43	849,89	-2,322	
74,48	6,602	704,05	850,76	-2,324	
74,50	6,607	701,39	851,65	-2,325	
74,52	6,611	702,10	851,46	-2,326	
74,54	6,615	703,05	850,62	-2,327	
74,56	6,618	704,18	849,87	-2,328	
74,58	6,623	704,06	850,45	-2,330	
74,60	6,627	703,47	851,38	-2,331	
74,62	6,630	703,20	851,32	-2,332	
74,64	6,634	703,25	850,53	-2,333	
74,66	6,638	704,11	849,87	-2,334	
74,68	6,642	703,25	850,53	-2,336	
74,70	6,646	702,58	851,34	-2,337	
74,72	6,650	702,74	851,14	-2,338	
74,74	6,654	703,24	850,32	-2,339	
74,76	6,658	703,47	849,95	-2,340	
74,78	6,662	701,41	850,81	-2,342	
74,80	6,666	701,50	851,34	-2,343	
74,82	6,670	702,61	850,89	-2,344	
74,84	6,674	703,85	850,05	-2,345	
74,86	6,678	702,73	850,18	-2,346	
74,88	6,682	700,42	851,12	-2,348	
74,90	6,686	701,25	851,28	-2,349	
74,92	6,690	702,62	850,60	-2,350	
74,94	6,694	703,91	849,91	-2,351	
74,96	6,698	701,54	850,53	-2,352	
74,98	6,703	700,23	851,39	-2,354	
75,00	6,707	701,67	851,26	-2,355	
75,02	6,711	703,00	850,45	-2,356	
75,04	6,714	703,89	849,87	-2,357	
75,06	6,719	701,83	850,69	-2,359	
75,08	6,723	701,24	851,52	-2,360	
75,10	6,727	702,23	851,29	-2,361	
75,12	6,730	703,12	850,45	-2,362	
75,14	6,734	703,34	849,86	-2,363	
75,16	6,738	701,62	850,55	-2,364	
75,18	6,742	701,66	851,23	-2,366	
75,20	6,746	702,58	850,94	-2,367	
75,22	6,750	703,60	850,13	-2,368	
75,24	6,754	703,12	850,11	-2,369	
75,26	6,758	700,44	851,12	-2,371	
75,28	6,762	700,99	851,48	-2,372	
75,30	6,766	702,53	850,90	-2,373	
75,32	6,770	703,80	850,04	-2,374	
75,34	6,774	702,91	850,20	-2,375	
75,36	6,778	700,42	851,22	-2,377	
75,38	6,782	699,55	851,44	-2,378	
75,40	6,786	699,68	850,79	-2,378	
75,42	6,790	700,59	849,96	-2,380	
75,44	6,794	699,65	850,28	-2,381	
75,46	6,799	698,56	851,25	-2,382	
75,48	6,803	699,06	851,33	-2,383	
75,50	6,807	699,71	850,61	-2,384	
75,52	6,810	700,75	849,90	-2,386	
75,54	6,814	699,48	850,51	-2,387	
75,56	6,818	698,54	851,38	-2,388	
75,58	6,822	699,07	851,27	-2,389	
75,60	6,826	699,68	850,47	-2,390	
75,62	6,830	700,68	849,86	-2,392	
75,64	6,834	699,88	850,56	-2,393	
75,66	6,838	699,35	851,29	-2,394	
75,68	6,842	699,54	851,04	-2,395	
75,70	6,846	700,11	850,21	-2,396	
75,72	6,850	699,90	850,00	-2,397	
75,74	6,854	697,19	850,94	-2,399	
75,76	6,858	697,58	851,38	-2,400	
75,78	6,862	699,07	850,85	-2,401	
75,80	6,866	700,51	850,02	-2,402	
75,82	6,870	698,99	850,28	-2,404	
75,84	6,874	697,18	851,19	-2,405	
75,86	6,878	698,29	851,24	-2,406	
75,88	6,882	699,68	850,51	-2,407	
75,90	6,886	700,83	849,90	-2,408	
75,92	6,890	698,78	850,63	-2,410	
75,94	6,894	697,73	851,38	-2,411	
75,96	6,898	698,78	851,12	-2,412	
75,98	6,902	699,97	850,28	-2,413	
76,00	6,906	700,05	849,96	-2,414	
76,02	6,911	696,74	850,86	-2,415	
76,04	6,915	696,89	851,34	-2,417	
76,06	6,919	698,87	850,86	-2,418	
76,08	6,922	700,56	850,03	-2,419	
76,10	6,926	699,07	850,20	-2,420	
76,12	6,930	697,13	851,06	-2,421	
76,14	6,934	698,19	851,12	-2,422	
76,16	6,938	699,59	850,41	-2,423	
76,18	6,942	700,51	849,91	-2,425	
76,20	6,946	697,19	850,80	-2,426	
76,22	6,950	694,95	851,55	-2,427	
76,24	6,954	695,49	851,25	-2,428	
76,26	6,958	696,52	850,37	-2,429	
76,28	6,962	697,10	849,94	-2,431	
76,30	6,966	695,55	850,79	-2,432	
76,32	6,970	695,45	851,37	-2,433	
76,34	6,974	696,13	850,96	-2,434	
76,36	6,978	697,05	850,10	-2,435	
76,38	6,982	696,74	850,11	-2,436	
76,40	6,986	694,65	851,09	-2,438	
76,42	6,990	694,96	851,37	-2,439	
76,44	6,994	696,07	850,75	-2,440	
76,46	6,998	697,31	849,96	-2,441	
76,48	7,002	695,12	850,39	-2,442	
76,50	7,006	693,64	851,33	-2,444	
76,52	7,010	694,98	851,32	-2,445	
76,54	7,014	696,25	850,55	-2,446	
76,56	7,018	697,43	849,87	-2,447	
76,58	7,022	696,08	850,59	-2,448	
76,60	7,026	695,20	851,49	-2,450	
76,62	7,030	695,81	851,33	-2,451	
76,64	7,034	696,44	850,50	-2,451	
76,66	7,038	697,15	849,91	-2,453	
76,68	7,042	695,65	850,75	-2,454	
76,70	7,046	695,34	851,56	-2,455	
76,72	7,050	695,99	851,32	-2,456	
76,74	7,054	696,49	850,47	-2,457	
76,76	7,058	697,35	849,88	-2,459	
76,78	7,062	696,17	850,72	-2,460	
76,80	7,066	694,26	851,56	-2,461	
76,82	7,070	693,24	851,34	-2,462	
76,84	7,074	693,33	850,50	-2,463	
76,86	7,078	695,44	849,90	-2,464	
76,88	7,082	695,85	850,73	-2,466	
76,90	7,086	695,80	851,59	-2,467	
76,92	7,090	696,12	851,38	-2,468	
76,94	7,094	696,21	850,54	-2,469	
76,96	7,098	696,06	849,89	-2,470	
76,98	7,102	695,07	850,65	-2,472	
77,00	7,106	693,84	851,54	-2,473	
77,02	7,110	693,17	851,39	-2,474	
77,04	7,114	693,68	850,57	-2,475	
77,06	7,118	694,79	849,91	-2,476	
77,08	7,122	694,32	850,51	-2,477	
77,10	7,126	694,95	851,19	-2,479	
77,12	7,130	696,05	850,93	-2,480	
77,14	7,134	697,03	850,12	-2,481	
77,16	7,138	696,46	850,03	-2,482	
77,18	7,142	692,35	851,07	-2,483	
77,20	7,146	691,50	851,49	-2,484	
77,22	7,150	692,57	850,95	-2,485	
77,24	7,154	693,83	850,08	-2,487	
77,26	7,158	693,83	850,16	-2,488	
77,28	7,162	692,74	851,18	-2,489	
77,30	7,166	692,62	851,47	-2,490	
77,32	7,170	693,01	850,85	-2,491	
77,34	7,174	693,97	850,00	-2,492	
77,36	7,178	693,26	850,25	-2,494	
77,38	7,182	692,09	851,31	-2,495	
77,40	7,186	692,50	851,52	-2,496	
77,42	7,190	693,06	850,86	-2,497	
77,44	7,194	693,90	850,00	-2,498	
77,46	7,198	693,66	850,16	-2,499	
77,48	7,202	692,75	851,07	-2,501	
77,50	7,206	692,73	851,20	-2,502	
77,52	7,210	693,05	850,52	-2,503	
77,54	7,214	693,94	849,91	-2,504	
77,56	7,218	692,04	850,68	-2,505	
77,58	7,222	691,06	851,52	-2,507	
77,60	7,226	692,16	851,32	-2,508	
77,62	7,230	693,10	850,50	-2,508	
77,64	7,234	693,83	849,91	-2,510	
77,66	7,238	692,34	850,60	-2,511	
77,68	7,242	692,00	851,26	-2,513	
77,70	7,246	692,61	850,95	-2,514	
77,72	7,250	693,56	850,12	-2,514	
77,74	7,254	693,32	850,07	-2,516	
77,76	7,258	689,77	851,22	-2,517	
77,78	7,262	688,62	851,72	-2,518	
77,80	7,266	689,28	851,20	-2,519	
77,82	7,270	690,11	850,29	-2,520	
77,84	7,274	690,91	849,95	-2,521	
77,86	7,278	690,45	850,87	-2,523	
77,88	7,282	689,99	851,43	-2,524	
77,90	7,286	689,91	850,99	-2,525	
77,92	7,290	690,46	850,12	-2,526	
77,94	7,294	690,33	850,08	-2,527	
77,96	7,298	688,71	851,06	-2,529	
77,98	7,302	688,76	851,39	-2,530	
78,00	7,306	689,53	850,80	-2,531	
78,02	7,310	690,69	849,97	-2,532	
78,04	7,314	689,33	850,31	-2,533	
78,06	7,318	687,96	851,36	-2,534	
78,08	7,322	688,80	851,50	-2,535	
78,10	7,326	689,69	850,81	-2,536	
78,12	7,330	690,67	849,97	-2,537	
78,14	7,334	689,69	850,26	-2,539	
78,16	7,338	688,55	851,17	-2,540	
78,18	7,342	689,02	851,22	-2,541	
78,20	7,346	689,69	850,50	-2,542	
78,22	7,350	690,45	849,90	-2,543	
78,24	7,354	687,94	850,61	-2,544	
78,26	7,358	687,12	851,36	-2,546	
78,28	7,362	688,53	851,11	-2,547	
78,30	7,366	689,93	850,27	-2,548	
78,32	7,370	689,97	849,98	-2,549	
78,34	7,374	687,17	850,76	-2,550	
78,36	7,379	687,44	851,11	-2,552	
78,38	7,382	688,97	850,57	-2,552	
78,40	7,386	690,58	849,87	-2,553	
78,42	7,390	687,74	850,59	-2,555	
78,44	7,394	684,71	851,73	-2,556	
78,46	7,398	685,06	851,77	-2,557	
78,48	7,402	685,99	851,00	-2,558	
78,50	7,406	686,22	850,09	-2,559	
78,52	7,410	686,39	850,07	-2,560	
78,54	7,414	686,49	850,86	-2,562	
78,56	7,418	687,06	850,98	-2,563	
78,58	7,422	688,80	850,32	-2,564	
78,60	7,426	689,78	849,94	-2,565	
78,62	7,430	685,55	850,81	-2,566	
78,64	7,434	684,44	851,38	-2,568	
78,66	7,438	687,30	850,97	-2,569	
78,68	7,442	689,89	850,12	-2,569	
78,70	7,446	689,52	850,10	-2,571	
78,72	7,450	686,37	851,11	-2,572	
78,74	7,454	685,43	851,45	-2,573	
78,76	7,458	685,91	850,87	-2,574	
78,78	7,462	687,02	850,02	-2,575	
78,80	7,466	686,38	850,24	-2,577	
78,82	7,470	685,21	851,27	-2,578	
78,84	7,474	685,58	851,48	-2,579	
78,86	7,478	686,17	850,82	-2,580	
78,88	7,482	687,10	849,98	-2,581	
78,90	7,486	686,32	850,23	-2,582	
78,92	7,490	685,19	851,21	-2,584	
78,94	7,494	685,58	851,36	-2,585	
78,96	7,498	686,18	850,67	-2,586	
78,98	7,502	687,22	849,93	-2,587	
79,00	7,506	685,53	850,46	-2,588	
79,02	7,510	684,31	851,37	-2,589	
79,04	7,514	685,25	851,31	-2,590	
79,06	7,518	686,17	850,54	-2,591	
79,08	7,522	687,30	849,88	-2,592	
79,10	7,526	686,51	850,60	-2,594	
79,12	7,530	685,86	851,45	-2,595	
79,14	7,534	686,05	851,29	-2,596	
79,16	7,538	686,40	850,47	-2,597	
79,18	7,542	687,06	849,87	-2,598	
79,20	7,546	685,64	850,62	-2,600	
79,22	7,550	685,25	851,35	-2,601	
79,24	7,554	685,87	851,08	-2,602	
79,26	7,558	686,57	850,23	-2,603	
79,28	7,562	686,81	849,96	-2,604	
79,30	7,566	684,66	851,03	-2,605	
79,32	7,570	684,51	851,68	-2,606	
79,34	7,574	684,38	851,25	-2,607	
79,36	7,578	683,86	850,35	-2,608	
79,38	7,582	684,13	849,93	-2,610	
79,40	7,586	683,60	850,81	-2,611	
79,42	7,590	683,04	851,41	-2,612	
79,44	7,594	682,93	851,01	-2,613	
79,46	7,598	683,46	850,15	-2,614	
79,48	7,602	683,44	850,06	-2,615	
79,50	7,606	681,85	851,09	-2,616	
79,52	7,610	681,95	851,50	-2,618	
79,54	7,614	682,73	850,95	-2,619	
79,56	7,618	683,68	850,07	-2,620	
79,58	7,622	683,23	850,14	-2,621	
79,60	7,626	681,96	851,21	-2,622	
79,62	7,630	682,24	851,54	-2,623	
79,64	7,634	682,80	850,92	-2,624	
79,66	7,638	683,65	850,03	-2,625	
79,68	7,642	683,52	850,18	-2,627	
79,70	7,646	682,55	851,24	-2,628	
79,72	7,650	682,53	851,49	-2,629	
79,74	7,654	682,86	850,84	-2,630	
79,76	7,658	683,75	849,99	-2,631	
79,78	7,662	682,84	850,35	-2,632	
79,80	7,667	681,72	851,42	-2,634	
79,82	7,670	682,22	851,57	-2,635	
79,84	7,674	682,90	850,85	-2,636	
79,86	7,678	683,81	849,99	-2,637	
79,88	7,682	683,41	850,27	-2,638	
79,90	7,686	682,49	851,28	-2,639	
79,92	7,690	682,60	851,42	-2,640	
79,94	7,694	682,94	850,72	-2,641	
79,96	7,698	683,91	849,93	-2,642	
79,98	7,702	682,86	850,39	-2,644	
80,00	7,706	681,81	851,33	-2,645	
80,02	7,710	682,33	851,33	-2,646	
80,04	7,714	682,96	850,57	-2,647	
80,06	7,718	683,74	849,90	-2,648	
80,08	7,722	681,78	850,63	-2,649	
80,10	7,726	681,06	851,52	-2,651	
80,12	7,730	682,06	851,36	-2,652	
80,14	7,734	682,91	850,53	-2,653	
80,16	7,738	683,70	849,90	-2,654	
80,18	7,742	681,68	850,69	-2,655	
80,20	7,746	681,09	851,52	-2,656	
80,22	7,750	682,13	851,30	-2,657	
80,24	7,754	683,02	850,45	-2,658	
80,26	7,758	683,80	849,92	-2,659	
80,28	7,762	682,23	850,75	-2,661	
80,30	7,766	681,88	851,48	-2,662	
80,32	7,770	682,56	851,17	-2,663	
80,34	7,774	683,28	850,30	-2,664	
80,36	7,778	683,56	849,98	-2,665	
80,38	7,782	680,80	851,04	-2,666	
80,40	7,786	680,32	851,69	-2,668	
80,42	7,790	680,57	851,27	-2,668	
80,44	7,794	680,31	850,35	-2,669	
80,46	7,798	680,66	849,94	-2,671	
80,48	7,802	680,15	850,85	-2,672	
80,50	7,806	679,71	851,46	-2,673	
80,52	7,810	679,60	851,05	-2,674	
80,54	7,814	680,73	850,17	-2,675	
80,56	7,818	681,66	850,07	-2,676	
80,58	7,822	679,54	851,16	-2,678	
80,60	7,826	678,87	851,63	-2,677	
80,62	7,830	679,39	851,11	-2,676	
80,64	7,834	680,05	850,20	-2,676	
80,66	7,838	680,40	850,02	-2,677	
80,68	7,842	679,33	851,09	-2,679	
80,70	7,846	679,14	851,62	-2,680	
80,72	7,850	679,50	851,12	-2,681	
80,74	7,854	680,14	850,21	-2,681	
80,76	7,858	680,43	850,00	-2,683	
80,78	7,863	679,38	850,98	-2,684	
80,80	7,867	679,22	851,42	-2,685	
80,82	7,870	679,53	850,89	-2,687	
80,84	7,874	680,37	850,03	-2,690	
80,86	7,878	679,10	850,28	-2,693	
80,88	7,882	677,70	851,31	-2,695	
80,90	7,886	678,55	851,50	-2,696	
80,92	7,890	679,44	850,84	-2,697	
80,94	7,894	680,49	849,99	-2,698	
80,96	7,898	680,20	850,27	-2,699	
80,98	7,902	679,26	851,30	-2,701	
81,00	7,906	679,28	851,47	-2,702	
81,02	7,910	679,57	850,79	-2,702	
81,04	7,914	680,51	849,96	-2,703	
81,06	7,918	680,09	850,34	-2,705	
81,08	7,922	679,24	851,34	-2,706	
81,10	7,926	679,40	851,44	-2,707	
81,12	7,930	679,71	850,73	-2,708	
81,14	7,934	680,65	849,94	-2,709	
81,16	7,938	680,05	850,45	-2,710	
81,18	7,942	679,22	851,43	-2,712	
81,20	7,947	679,33	851,42	-2,713	
81,22	7,950	679,67	850,65	-2,714	
81,24	7,954	680,64	849,92	-2,715	
81,26	7,958	679,33	850,57	-2,716	
81,28	7,962	678,30	851,47	-2,717	
81,30	7,966	678,85	851,35	-2,718	
81,32	7,970	679,57	850,52	-2,719	
81,34	7,974	680,52	849,90	-2,720	
81,36	7,978	678,60	850,72	-2,722	
81,38	7,982	677,88	851,58	-2,723	
81,40	7,986	678,25	851,36	-2,724	
81,42	7,990	677,58	850,51	-2,725	
81,44	7,994	678,02	849,92	-2,726	
81,46	7,998	677,75	850,69	-2,727	
81,48	8,002	678,25	851,43	-2,728	
81,50	8,006	679,07	851,15	-2,729	
81,52	8,010	679,77	850,30	-2,730	
81,54	8,014	680,14	849,91	-2,731	
81,56	8,018	677,95	850,86	-2,733	
81,58	8,022	678,01	851,47	-2,734	
81,60	8,026	679,21	851,05	-2,735	
81,62	8,030	680,37	850,16	-2,736	
81,64	8,034	679,59	850,15	-2,737	
81,66	8,038	676,63	851,12	-2,738	
81,68	8,043	677,01	851,39	-2,739	
81,70	8,046	678,90	850,75	-2,740	
81,72	8,050	680,56	849,94	-2,741	
81,74	8,054	678,41	850,42	-2,743	
81,76	8,058	675,42	851,47	-2,744	
81,78	8,062	675,32	851,54	-2,745	
81,80	8,066	676,08	850,78	-2,746	
81,82	8,070	677,21	849,95	-2,747	
81,84	8,074	676,71	850,34	-2,748	
81,86	8,078	675,93	851,21	-2,750	
81,88	8,082	676,04	851,19	-2,751	
81,90	8,086	676,38	850,42	-2,752	
81,92	8,090	677,56	849,89	-2,753	
81,94	8,094	675,80	850,83	-2,754	
81,96	8,098	674,74	851,70	-2,755	
81,98	8,102	675,51	851,46	-2,756	
82,00	8,106	676,25	850,59	-2,757	
82,02	8,110	677,49	849,90	-2,758	
82,04	8,114	677,30	850,67	-2,760	
82,06	8,118	676,50	851,62	-2,761	
82,08	8,122	676,15	851,50	-2,762	
82,10	8,126	675,02	850,67	-2,763	
82,12	8,130	674,73	849,90	-2,764	
82,14	8,134	674,76	850,46	-2,765	
82,16	8,139	675,37	851,38	-2,766	
82,18	8,143	676,10	851,31	-2,767	
82,20	8,146	676,47	850,51	-2,768	
82,22	8,150	677,14	849,90	-2,769	
82,24	8,154	675,20	850,64	-2,771	
82,26	8,158	674,59	851,39	-2,772	
82,28	8,162	675,62	851,11	-2,773	
82,30	8,166	676,71	850,25	-2,774	
82,32	8,170	676,84	850,02	-2,775	
82,34	8,174	673,32	851,19	-2,776	
82,36	8,178	671,94	851,87	-2,778	
82,38	8,182	672,53	851,44	-2,778	
82,40	8,186	673,18	850,51	-2,779	
82,42	8,190	674,39	849,91	-2,780	
82,44	8,194	674,63	850,67	-2,782	
82,46	8,198	673,80	851,42	-2,783	
82,48	8,202	673,26	851,14	-2,784	
82,50	8,206	673,45	850,28	-2,785	
82,52	8,210	673,70	849,97	-2,786	
82,54	8,214	671,50	851,02	-2,787	
82,56	8,218	671,50	851,65	-2,788	
82,58	8,222	672,64	851,22	-2,789	
82,60	8,226	673,47	850,31	-2,790	
82,62	8,230	674,02	849,96	-2,791	
82,64	8,234	672,93	850,87	-2,793	
82,66	8,238	672,57	851,42	-2,794	
82,68	8,242	672,91	850,97	-2,795	
82,70	8,246	673,81	850,10	-2,796	
82,72	8,250	673,23	850,12	-2,797	
82,74	8,254	671,30	851,13	-2,798	
82,76	8,258	671,69	851,43	-2,799	
82,78	8,262	672,71	850,81	-2,800	
82,80	8,266	673,93	849,97	-2,801	
82,82	8,270	672,65	850,35	-2,803	
82,84	8,274	671,23	851,47	-2,804	
82,86	8,278	671,92	851,67	-2,805	
82,88	8,282	671,58	850,98	-2,805	
82,90	8,286	671,06	850,07	-2,806	
82,92	8,290	671,64	850,08	-2,808	
82,94	8,294	672,36	851,09	-2,809	
82,96	8,298	672,86	851,39	-2,810	
82,98	8,302	673,10	850,77	-2,811	
83,00	8,306	673,94	849,98	-2,812	
83,02	8,310	671,92	850,40	-2,813	
83,04	8,314	670,36	851,29	-2,814	
83,06	8,318	671,65	851,24	-2,815	
83,08	8,322	672,94	850,47	-2,816	
83,10	8,326	673,72	849,89	-2,817	
83,12	8,330	671,10	850,72	-2,819	
83,14	8,335	670,58	851,52	-2,820	
83,16	8,339	672,04	851,26	-2,821	
83,18	8,342	672,55	850,41	-2,821	
83,20	8,346	671,81	849,91	-2,822	
83,22	8,350	669,28	850,71	-2,824	
83,24	8,354	668,73	851,33	-2,825	
83,26	8,358	669,35	850,96	-2,826	
83,28	8,362	670,95	850,12	-2,827	
83,30	8,366	671,90	850,11	-2,828	
83,32	8,370	669,74	851,17	-2,829	
83,34	8,374	669,00	851,54	-2,830	
83,36	8,378	669,50	850,95	-2,831	
83,38	8,382	670,52	850,07	-2,832	
83,40	8,386	669,90	850,21	-2,833	
83,42	8,390	668,63	851,25	-2,835	
83,44	8,394	669,02	851,49	-2,836	
83,46	8,398	669,64	850,83	-2,836	
83,48	8,402	670,60	849,98	-2,837	
83,50	8,406	669,75	850,32	-2,839	
83,52	8,410	668,59	851,37	-2,840	
83,54	8,414	668,40	851,51	-2,841	
83,56	8,418	667,53	850,79	-2,842	
83,58	8,422	667,60	849,95	-2,843	
83,60	8,426	666,85	850,39	-2,844	
83,62	8,430	666,00	851,42	-2,845	
83,64	8,434	666,11	851,50	-2,846	
83,66	8,438	666,42	850,77	-2,847	
83,68	8,442	667,32	849,94	-2,848	
83,70	8,446	666,86	850,36	-2,849	
83,72	8,450	665,96	851,43	-2,851	
83,74	8,454	666,04	851,56	-2,852	
83,76	8,458	666,39	850,84	-2,852	
83,78	8,462	667,24	849,98	-2,853	
83,80	8,466	667,49	850,22	-2,854	
83,82	8,470	666,83	851,21	-2,856	
83,84	8,474	666,47	851,35	-2,857	
83,86	8,478	666,51	850,63	-2,858	
83,88	8,482	667,47	849,91	-2,859	
83,90	8,486	665,76	850,64	-2,860	
83,92	8,490	664,43	851,64	-2,861	
83,94	8,494	665,40	851,57	-2,862	
83,96	8,498	666,37	850,76	-2,863	
83,98	8,502	667,47	849,94	-2,864	
84,00	8,506	666,94	850,35	-2,865	
84,02	8,510	666,06	851,27	-2,867	
84,04	8,514	666,08	851,27	-2,867	
84,06	8,518	666,41	850,51	-2,868	
84,08	8,522	667,22	849,86	-2,869	
84,10	8,526	665,30	850,63	-2,870	
84,12	8,531	664,56	851,50	-2,872	
84,14	8,535	665,53	851,33	-2,873	
84,16	8,538	666,34	850,49	-2,874	
84,18	8,542	667,17	849,91	-2,874	
84,20	8,546	665,55	850,78	-2,876	
84,22	8,550	663,96	851,60	-2,877	
84,24	8,554	663,32	851,33	-2,878	
84,26	8,558	663,35	850,46	-2,879	
84,28	8,562	664,15	849,90	-2,880	
84,30	8,566	663,22	850,78	-2,881	
84,32	8,570	662,66	851,60	-2,882	
84,34	8,574	662,89	851,38	-2,883	
84,36	8,578	663,18	850,56	-2,884	
84,38	8,582	664,29	849,90	-2,885	
84,40	8,586	664,06	850,71	-2,886	
84,42	8,590	663,24	851,68	-2,887	
84,44	8,594	663,04	851,55	-2,888	
84,46	8,598	663,17	850,71	-2,889	
84,48	8,602	664,12	849,92	-2,890	
84,50	8,606	664,06	850,44	-2,891	
84,52	8,610	663,18	851,37	-2,893	
84,54	8,614	662,93	851,32	-2,893	
84,56	8,618	663,18	850,53	-2,894	
84,58	8,622	663,82	849,93	-2,895	
84,60	8,626	661,76	850,64	-2,897	
84,62	8,630	661,40	851,34	-2,898	
84,64	8,634	662,43	851,04	-2,899	
84,66	8,638	663,52	850,19	-2,900	
84,68	8,642	663,58	850,05	-2,901	
84,70	8,646	661,24	851,12	-2,902	
84,72	8,650	661,14	851,61	-2,903	
84,74	8,654	661,13	851,09	-2,904	
84,76	8,658	660,79	850,18	-2,905	
84,78	8,662	660,45	850,03	-2,906	
84,80	8,666	659,92	850,99	-2,907	
84,82	8,670	661,27	851,38	-2,908	
84,84	8,674	662,61	850,83	-2,909	
84,86	8,678	663,81	849,99	-2,910	
84,88	8,682	662,59	850,25	-2,911	
84,90	8,686	661,10	851,29	-2,912	
84,92	8,690	661,94	851,46	-2,913	
84,94	8,694	662,80	850,78	-2,914	
84,96	8,698	662,64	849,94	-2,915	
84,98	8,702	660,77	850,31	-2,916	
85,00	8,706	659,20	851,37	-2,918	
85,02	8,710	659,18	851,51	-2,918	
85,04	8,714	659,50	850,80	-2,919	
85,06	8,718	660,45	849,94	-2,920	
85,08	8,722	660,15	850,37	-2,921	
85,10	8,726	659,21	851,57	-2,923	
85,12	8,730	658,58	851,80	-2,924	
85,14	8,734	657,26	851,11	-2,924	
85,16	8,738	656,85	850,16	-2,925	
85,18	8,742	658,38	850,02	-2,926	
85,20	8,746	658,24	851,10	-2,927	
85,22	8,750	656,90	851,61	-2,929	
85,24	8,754	656,30	851,12	-2,929	
85,26	8,758	656,69	850,22	-2,930	
85,28	8,762	657,24	849,99	-2,931	
85,30	8,766	657,46	850,92	-2,933	
85,32	8,770	658,59	851,36	-2,934	
85,34	8,774	659,34	850,84	-2,934	
85,36	8,778	660,35	850,01	-2,935	
85,38	8,782	658,58	850,32	-2,936	
85,40	8,786	656,15	851,38	-2,938	
85,42	8,790	656,87	851,55	-2,939	
85,44	8,794	657,02	850,85	-2,939	
85,46	8,798	657,31	850,00	-2,940	
85,48	8,802	656,71	850,32	-2,942	
85,50	8,806	655,76	851,34	-2,943	
85,52	8,810	655,73	851,47	-2,944	
85,54	8,814	656,09	850,76	-2,945	
85,56	8,818	657,13	849,93	-2,945	
85,58	8,822	656,30	850,45	-2,947	
85,60	8,826	655,04	851,64	-2,948	
85,62	8,830	654,26	851,81	-2,949	
85,64	8,834	653,39	851,09	-2,949	
85,66	8,838	653,48	850,15	-2,950	
85,68	8,842	655,17	850,03	-2,951	
85,70	8,846	656,34	850,93	-2,953	
85,72	8,850	656,41	851,25	-2,954	
85,74	8,854	656,36	850,67	-2,954	
85,76	8,858	657,22	849,93	-2,955	
85,78	8,862	655,23	850,47	-2,956	
85,80	8,866	653,53	851,47	-2,958	
85,82	8,870	654,68	851,48	-2,959	
85,84	8,874	654,71	850,72	-2,959	
85,86	8,878	654,44	849,92	-2,960	
85,88	8,882	653,27	850,37	-2,961	
85,90	8,886	652,40	851,31	-2,963	
85,92	8,890	652,53	851,31	-2,963	
85,94	8,894	652,92	850,55	-2,964	
85,96	8,898	653,76	849,91	-2,965	
85,98	8,902	652,31	850,64	-2,966	
86,00	8,906	651,81	851,47	-2,967	
86,02	8,910	652,37	851,29	-2,968	
86,04	8,914	652,83	850,46	-2,969	
86,06	8,918	653,64	849,88	-2,970	
86,08	8,922	652,23	850,75	-2,971	
86,10	8,926	651,69	851,63	-2,972	
86,12	8,930	651,11	851,42	-2,973	
86,14	8,934	650,22	850,57	-2,974	
86,16	8,938	650,72	849,88	-2,975	
86,18	8,942	650,92	850,57	-2,976	
86,20	8,946	650,56	851,47	-2,977	
86,22	8,950	651,02	851,34	-2,978	
86,24	8,954	651,24	850,53	-2,979	
86,26	8,958	652,39	849,90	-2,980	
86,28	8,962	651,17	850,75	-2,981	
86,30	8,966	649,67	851,74	-2,982	
86,32	8,970	649,38	851,62	-2,983	
86,34	8,974	649,54	850,81	-2,984	
86,36	8,978	650,55	849,96	-2,985	
86,38	8,982	651,24	850,28	-2,986	
86,40	8,986	650,55	851,21	-2,987	
86,42	8,990	650,40	851,29	-2,988	
86,44	8,994	651,72	850,57	-2,989	
86,46	8,998	653,49	849,89	-2,989	
86,48	9,002	651,87	850,60	-2,991	
86,50	9,006	649,77	851,53	-2,992	
86,52	9,010	649,26	851,41	-2,993	
86,54	9,014	649,46	850,61	-2,993	
86,56	9,018	650,50	849,87	-2,994	
86,58	9,022	649,91	850,44	-2,995	
86,60	9,026	649,19	851,36	-2,997	
86,62	9,030	649,31	851,29	-2,998	
86,64	9,034	649,67	850,50	-2,998	
86,66	9,038	650,30	849,93	-2,999	
86,68	9,042	648,13	850,81	-3,000	
86,70	9,046	647,79	851,69	-3,001	
86,72	9,050	648,81	851,48	-3,002	
86,74	9,054	649,40	850,63	-3,003	
86,76	9,058	650,51	849,89	-3,004	
86,78	9,062	650,44	850,48	-3,005	
86,80	9,066	649,61	851,39	-3,006	
86,82	9,070	649,32	851,31	-3,007	
86,84	9,074	649,48	850,52	-3,008	
86,86	9,078	650,12	849,90	-3,009	
86,88	9,082	648,10	850,67	-3,010	
86,90	9,086	647,83	851,47	-3,011	
86,92	9,090	648,88	851,25	-3,012	
86,94	9,094	649,66	850,41	-3,013	
86,96	9,098	650,46	849,87	-3,013	
86,98	9,102	648,20	850,81	-3,015	
87,00	9,106	646,13	851,69	-3,016	
87,02	9,110	645,80	851,46	-3,017	
87,04	9,114	646,10	850,60	-3,017	
87,06	9,118	647,18	849,89	-3,018	
87,08	9,122	647,03	850,50	-3,020	
87,10	9,126	646,44	851,29	-3,021	
87,12	9,130	647,45	851,10	-3,021	
87,14	9,134	649,27	850,28	-3,022	
87,16	9,138	649,41	850,02	-3,023	
87,18	9,142	645,09	851,16	-3,024	
87,20	9,146	644,08	851,84	-3,025	
87,22	9,150	645,26	851,43	-3,026	
87,24	9,154	644,91	850,52	-3,027	
87,26	9,158	644,80	849,87	-3,028	
87,28	9,162	645,74	850,57	-3,029	
87,30	9,166	646,19	851,38	-3,030	
87,32	9,170	646,17	851,18	-3,031	
87,34	9,174	646,47	850,35	-3,032	
87,36	9,178	646,65	850,00	-3,032	
87,38	9,182	643,82	850,89	-3,034	
87,40	9,186	643,85	851,40	-3,035	
87,42	9,190	645,27	850,92	-3,035	
87,44	9,194	645,68	850,05	-3,036	
87,46	9,198	643,86	850,26	-3,037	
87,48	9,202	641,46	851,41	-3,038	
87,50	9,206	641,70	851,73	-3,039	
87,52	9,210	642,46	851,10	-3,040	
87,54	9,214	643,10	850,18	-3,041	
87,56	9,218	643,72	850,03	-3,042	
87,58	9,222	643,40	851,13	-3,043	
87,60	9,226	642,88	851,66	-3,044	
87,62	9,230	642,76	851,16	-3,045	
87,64	9,234	643,11	850,24	-3,045	
87,66	9,238	643,67	849,99	-3,046	
87,68	9,242	642,71	851,10	-3,048	
87,70	9,246	642,36	851,74	-3,049	
87,72	9,250	642,03	851,30	-3,049	
87,74	9,254	640,82	850,39	-3,050	
87,76	9,258	640,62	849,91	-3,051	
87,78	9,262	640,01	850,88	-3,052	
87,80	9,266	639,56	851,67	-3,053	
87,82	9,270	639,45	851,38	-3,054	
87,84	9,274	639,56	850,50	-3,055	
87,86	9,278	640,47	849,90	-3,056	
87,88	9,282	640,27	850,65	-3,057	
87,90	9,286	639,68	851,41	-3,058	
87,92	9,290	639,45	851,14	-3,059	
87,94	9,294	639,74	850,29	-3,059	
87,96	9,298	640,30	849,92	-3,060	
87,98	9,302	638,71	850,96	-3,061	
88,00	9,306	638,41	851,67	-3,062	
88,02	9,310	639,12	851,29	-3,063	
88,04	9,314	639,69	850,39	-3,064	
88,06	9,318	640,44	849,89	-3,065	
88,08	9,322	639,40	850,84	-3,066	
88,10	9,326	638,93	851,65	-3,067	
88,12	9,330	639,20	851,37	-3,068	
88,14	9,334	639,52	850,50	-3,069	
88,16	9,338	640,34	849,89	-3,069	
88,18	9,342	639,38	850,71	-3,071	
88,20	9,346	638,22	851,55	-3,072	
88,22	9,350	636,99	851,33	-3,072	
88,24	9,354	636,40	850,48	-3,073	
88,26	9,358	637,00	849,91	-3,074	
88,28	9,362	636,08	850,75	-3,075	
88,30	9,366	635,58	851,54	-3,076	
88,32	9,370	635,87	851,29	-3,077	
88,34	9,374	636,28	850,43	-3,077	
88,36	9,378	637,17	849,86	-3,078	
88,38	9,382	636,23	850,74	-3,079	
88,40	9,386	635,69	851,59	-3,080	
88,42	9,390	635,95	851,37	-3,081	
88,44	9,394	636,25	850,54	-3,082	
88,46	9,398	637,16	849,91	-3,083	
88,48	9,402	636,34	850,69	-3,084	
88,50	9,406	635,74	851,53	-3,085	
88,52	9,410	635,90	851,33	-3,086	
88,54	9,414	636,22	850,49	-3,086	
88,56	9,418	636,96	849,90	-3,087	
88,58	9,422	635,37	850,71	-3,088	
88,60	9,426	633,84	851,54	-3,089	
88,62	9,430	633,11	851,32	-3,090	
88,64	9,434	633,01	850,48	-3,091	
88,66	9,438	633,73	849,91	-3,092	
88,68	9,442	632,86	850,78	-3,093	
88,70	9,446	632,40	851,63	-3,094	
88,72	9,450	632,55	851,39	-3,094	
88,74	9,454	632,78	850,54	-3,095	
88,76	9,458	633,80	849,89	-3,096	
88,78	9,462	633,59	850,66	-3,097	
88,80	9,466	632,91	851,51	-3,098	
88,82	9,470	632,68	851,32	-3,099	
88,84	9,474	632,87	850,47	-3,099	
88,86	9,478	633,65	849,90	-3,100	
88,88	9,482	632,14	850,77	-3,101	
88,90	9,486	631,65	851,63	-3,102	
88,92	9,490	631,70	851,40	-3,103	
88,94	9,494	630,04	850,56	-3,103	
88,96	9,497	626,77	849,90	-3,103	
88,98	9,501	620,57	850,66	-3,103	
89,00	9,502	612,52	851,55	-3,103	
89,02	9,503	602,19	851,41	-3,103	
89,04	9,503	590,31	850,58	-3,103	
89,06	9,503	580,04	849,88	-3,103	
89,08	9,503	569,69	850,52	-3,103	
89,10	9,503	560,03	851,42	-3,103	
89,12	9,503	551,21	851,30	-3,103	
89,14	9,503	543,12	850,50	-3,103	
89,16	9,503	536,59	849,88	-3,102	
89,18	9,503	528,29	850,76	-3,103	
89,20	9,503	521,11	851,73	-3,103	
89,22	9,503	515,06	851,58	-3,103	
89,24	9,503	508,84	850,76	-3,103	
89,26	9,503	503,28	849,95	-3,102	
89,28	9,503	497,79	850,40	-3,103	
89,30	9,503	491,71	851,34	-3,103	
89,32	9,503	486,49	851,35	-3,103	
89,34	9,503	481,95	850,60	-3,102	
89,36	9,503	478,65	849,90	-3,102	
89,38	9,503	473,18	850,57	-3,103	
89,40	9,503	467,66	851,49	-3,103	
89,42	9,503	389,99	851,38	-3,102	
89,44	9,503	179,29	850,58	-3,102	
89,46	9,503	33,06	849,88	-3,102	
89,48	9,503	-8,146	850,58	-3,102	
89,50	9,503	-8,404	851,52	-3,103	
89,52	9,503	-5,445	851,42	-3,103	
89,54	9,503	-5,076	850,62	-3,102	
89,56	9,503	-4,530	849,89	-3,102	
89,58	9,503	-5,336	850,46	-3,102	
89,60	9,503	-5,995	851,28	-3,102	
89,62	9,503	-5,763	851,14	-3,102	
89,64	9,503	-5,260	850,35	-3,102	
89,66	9,503	-4,589	849,94	-3,102	
89,68	9,503	-5,656	850,88	-3,103	
89,70	9,503	-6,074	851,57	-3,103	
89,72	9,503	-5,817	851,22	-3,102	
89,74	9,503	-5,408	850,35	-3,102	
89,76	9,503	-4,839	849,93	-3,102	
89,78	9,503	-5,845	850,86	-3,102	
89,80	9,503	-6,137	851,53	-3,103	
89,82	9,503	-5,777	851,17	-3,102	
89,84	9,503	-5,181	850,29	-3,102	
89,86	9,503	-4,713	850,02	-3,102	
89,88	9,503	-3,752	851,02	-3,102	
89,90	9,503	92,88	851,58	-3,102	
89,92	9,503	269,81	851,12	-3,102	
89,94	9,503	367,62	850,23	-3,102	
89,96	9,503	386,59	849,98	-3,102	
89,98	9,503	380,83	851,12	-3,102	
90,00	9,503	375,83	851,81	-3,102	
90,02	9,503	373,02	851,41	-3,102	
90,04	9,503	370,89	850,50	-3,102	
90,06	9,503	369,90	849,86	-3,102	
90,08	9,503	368,73	850,72	-3,102	
90,10	9,503	365,63	851,74	-3,102	
90,12	9,503	362,46	851,63	-3,102	
90,14	9,503	360,46	850,82	-3,102	
90,16	9,503	358,37	849,84	-3,102	
90,18	9,503	359,67	848,88	-3,102	
90,20	9,503	365,78	847,94	-3,101	
90,22	9,503	371,62	847,01	-3,101	
90,24	9,503	376,25	846,07	-3,101	
90,26	9,503	381,13	845,14	-3,101	
90,28	9,503	387,20	844,23	-3,101	
90,30	9,503	393,92	843,33	-3,101	
90,32	9,503	400,11	842,42	-3,100	
90,34	9,503	405,33	841,52	-3,100	
90,36	9,503	411,00	840,62	-3,100	
90,38	9,503	417,32	839,71	-3,100	
90,40	9,503	422,82	838,80	-3,100	
90,42	9,503	428,05	837,89	-3,100	
90,44	9,503	433,63	836,98	-3,099	
90,46	9,503	438,78	836,08	-3,099	
90,48	9,503	443,99	835,17	-3,099	
90,50	9,503	448,87	834,28	-3,099	
90,52	9,503	453,37	833,40	-3,099	
90,54	9,503	457,91	832,52	-3,098	
90,56	9,503	462,45	831,65	-3,098	
90,58	9,503	466,87	830,78	-3,098	
90,60	9,503	471,34	829,90	-3,098	
90,62	9,503	475,43	829,02	-3,098	
90,64	9,503	479,39	828,14	-3,098	
90,66	9,503	483,52	827,27	-3,098	
90,68	9,503	487,32	826,41	-3,097	
90,70	9,503	490,83	825,54	-3,097	
90,72	9,503	494,84	824,67	-3,097	
90,74	9,503	498,86	823,80	-3,097	
90,76	9,503	502,52	822,93	-3,097	
90,78	9,503	505,94	822,08	-3,097	
90,80	9,503	509,30	821,22	-3,096	
90,82	9,503	512,64	820,37	-3,096	
90,84	9,503	515,89	819,50	-3,096	
90,86	9,503	518,51	818,64	-3,096	
90,88	9,503	521,15	817,78	-3,096	
90,90	9,503	524,24	816,93	-3,096	
90,92	9,503	527,62	816,08	-3,096	
90,94	9,503	531,06	815,24	-3,095	
90,96	9,503	534,04	814,41	-3,095	
90,98	9,503	536,61	813,59	-3,095	
91,00	9,503	539,41	812,76	-3,095	
91,02	9,503	541,97	811,93	-3,095	
91,04	9,503	544,69	811,11	-3,095	
91,06	9,503	547,40	810,31	-3,094	
91,08	9,503	549,90	809,50	-3,094	
91,10	9,503	552,21	808,67	-3,094	
91,12	9,503	554,89	807,85	-3,094	
91,14	9,503	557,49	807,04	-3,094	
91,16	9,503	559,29	806,23	-3,094	
91,18	9,503	561,09	805,42	-3,094	
91,20	9,503	563,28	804,61	-3,094	
91,22	9,503	565,11	803,81	-3,093	
91,24	9,503	566,92	802,99	-3,093	
91,26	9,503	568,98	802,17	-3,093	
91,28	9,503	571,09	801,36	-3,093	
91,30	9,503	572,74	800,57	-3,093	
91,32	9,503	574,54	799,77	-3,093	
91,34	9,503	576,11	798,97	-3,092	
91,36	9,503	577,91	798,18	-3,092	
91,38	9,503	579,54	797,38	-3,092	
91,40	9,503	581,35	796,59	-3,092	
91,42	9,503	582,48	795,80	-3,092	
91,44	9,503	583,86	795,01	-3,092	
91,46	9,503	585,36	794,23	-3,092	
91,48	9,503	586,14	793,46	-3,092	
91,50	9,503	587,37	792,69	-3,091	
91,52	9,503	588,74	791,92	-3,091	
91,54	9,503	589,39	791,15	-3,091	
91,56	9,503	590,58	790,38	-3,091	
91,58	9,503	591,94	789,60	-3,091	
91,60	9,503	592,52	788,83	-3,091	
91,62	9,503	592,62	788,07	-3,091	
91,64	9,503	592,63	787,33	-3,091	
91,66	9,503	593,12	786,60	-3,091	
91,68	9,503	594,56	785,85	-3,090	
91,70	9,503	595,58	785,08	-3,090	
91,72	9,503	595,86	784,30	-3,090	
91,74	9,503	595,87	783,53	-3,090	
91,76	9,503	595,91	782,78	-3,090	
91,78	9,503	595,91	782,03	-3,090	
91,80	9,503	595,87	781,30	-3,090	
91,82	9,503	595,88	780,58	-3,090	
91,84	9,503	595,86	779,84	-3,089	
91,86	9,503	595,86	779,10	-3,089	
91,88	9,503	595,89	778,35	-3,089	
91,90	9,503	595,84	777,61	-3,089	
91,92	9,503	595,86	776,88	-3,089	
91,94	9,503	595,90	776,15	-3,089	
91,96	9,503	595,92	775,43	-3,089	
91,98	9,503	595,95	774,71	-3,089	
92,00	9,503	595,99	773,98	-3,089	
92,02	9,503	596,01	773,24	-3,089	
92,04	9,503	596,00	772,50	-3,089	
92,06	9,503	595,88	771,79	-3,089	
92,08	9,503	594,79	771,07	-3,089	
92,10	9,503	593,41	770,36	-3,089	
92,12	9,503	592,80	769,65	-3,089	
92,14	9,503	592,68	768,96	-3,089	
92,16	9,503	592,16	768,26	-3,089	
92,18	9,503	590,68	767,57	-3,089	
92,20	9,503	589,65	766,86	-3,089	
92,22	9,503	589,38	766,15	-3,089	
92,24	9,503	588,83	765,44	-3,089	
92,26	9,503	587,30	764,75	-3,089	
92,28	9,503	586,19	764,06	-3,089	
92,30	9,503	585,91	763,37	-3,089	
92,32	9,503	585,85	762,68	-3,089	
92,34	9,503	584,77	762,01	-3,089	
92,36	9,503	583,30	761,35	-3,089	
92,38	9,503	582,49	760,67	-3,089	
92,40	9,503	581,22	759,98	-3,089	
92,42	9,503	579,81	759,28	-3,089	
92,44	9,503	579,24	758,59	-3,089	
92,46	9,503	578,74	757,90	-3,089	
92,48	9,503	577,31	757,22	-3,089	
92,50	9,503	576,19	756,55	-3,089	
92,52	9,503	575,73	755,90	-3,089	
92,54	9,503	574,60	755,25	-3,089	
92,56	9,503	573,19	754,60	-3,089	
92,58	9,503	572,46	753,94	-3,089	
92,60	9,503	571,26	753,30	-3,089	
92,62	9,503	569,82	752,65	-3,089	
92,64	9,503	569,12	751,99	-3,089	
92,66	9,503	568,56	751,33	-3,089	
92,68	9,503	567,16	750,68	-3,089	
92,70	9,503	565,94	750,04	-3,089	
92,72	9,503	564,50	749,39	-3,089	
92,74	9,503	563,06	748,75	-3,089	
92,76	9,503	562,38	748,11	-3,089	
92,78	9,503	561,21	747,49	-3,089	
92,80	9,503	559,77	746,89	-3,089	
92,82	9,503	558,63	746,29	-3,089	
92,84	9,503	557,07	745,68	-3,089	
92,86	9,503	555,93	745,08	-3,089	
92,88	9,503	554,52	744,48	-3,089	
92,90	9,503	553,09	743,86	-3,089	
92,92	9,503	552,37	743,23	-3,090	
92,94	9,503	551,11	742,62	-3,090	
92,96	9,503	549,59	742,04	-3,090	
92,98	9,503	547,88	741,47	-3,090	
93,00	9,503	546,24	740,92	-3,090	
93,02	9,503	544,40	740,36	-3,090	
93,04	9,503	542,76	739,82	-3,090	
93,06	9,503	541,11	739,27	-3,090	
93,08	9,503	539,18	738,73	-3,090	
93,10	9,503	537,07	738,18	-3,091	
93,12	9,503	535,35	737,63	-3,091	
93,14	9,503	533,42	737,07	-3,091	
93,16	9,503	531,18	736,52	-3,091	
93,18	9,503	528,94	735,97	-3,091	
93,20	9,503	526,77	735,42	-3,091	
93,22	9,503	524,52	734,87	-3,091	
93,24	9,503	522,30	734,34	-3,091	
93,26	9,503	520,09	733,82	-3,092	
93,28	9,503	517,71	733,30	-3,092	
93,30	9,503	514,85	732,79	-3,092	
93,32	9,503	512,28	732,30	-3,092	
93,34	9,503	509,98	731,81	-3,092	
93,36	9,503	507,69	731,33	-3,093	
93,38	9,503	504,86	730,84	-3,093	
93,40	9,503	502,19	730,37	-3,093	
93,42	9,503	499,48	729,90	-3,093	
93,44	9,503	496,81	729,45	-3,094	
93,46	9,503	494,18	729,00	-3,094	
93,48	9,503	491,22	728,57	-3,094	
93,50	9,503	488,02	728,15	-3,095	
93,52	9,503	484,66	727,73	-3,095	
93,54	9,503	481,25	727,32	-3,095	
93,56	9,503	477,44	726,91	-3,095	
93,58	9,503	473,22	726,51	-3,096	
93,60	9,503	469,35	726,13	-3,096	
93,62	9,503	465,27	725,77	-3,096	
93,64	9,503	461,29	725,41	-3,097	
93,66	9,503	457,29	725,05	-3,097	
93,68	9,503	453,11	724,68	-3,097	
93,70	9,503	449,20	724,33	-3,098	
93,72	9,503	445,10	724,00	-3,098	
93,74	9,503	440,66	723,67	-3,099	
93,76	9,503	435,57	723,37	-3,099	
93,78	9,503	430,58	723,08	-3,100	
93,80	9,503	425,35	722,81	-3,100	
93,82	9,503	420,41	722,54	-3,101	
93,84	9,503	414,95	722,29	-3,101	
93,86	9,503	409,69	722,05	-3,102	
93,88	9,503	404,43	721,82	-3,102	
93,90	9,503	398,85	721,57	-3,103	
93,92	9,503	393,68	721,34	-3,103	
93,94	9,503	388,01	721,13	-3,104	
93,96	9,503	381,75	720,94	-3,104	
93,98	9,503	376,16	720,75	-3,105	
94,00	9,503	370,84	720,56	-3,105	
94,02	9,503	364,68	720,38	-3,106	
94,04	9,503	358,04	720,24	-3,106	
94,06	9,503	351,38	720,09	-3,107	
94,08	9,503	344,73	719,95	-3,107	
94,10	9,503	338,48	719,81	-3,108	
94,12	9,503	333,28	719,67	-3,109	
94,14	9,503	327,69	719,54	-3,109	
94,16	9,503	321,17	719,42	-3,110	
94,18	9,503	313,27	719,30	-3,110	
94,20	9,503	305,08	719,19	-3,111	
94,22	9,503	297,76	719,10	-3,111	
94,24	9,503	290,93	719,00	-3,112	
94,26	9,503	284,21	718,89	-3,113	
94,28	9,503	277,51	718,79	-3,113	
94,30	9,503	270,85	718,71	-3,114	
94,32	9,503	264,09	718,63	-3,114	
94,34	9,503	256,30	718,55	-3,115	
94,36	9,503	248,09	718,49	-3,116	
94,38	9,503	240,66	718,43	-3,116	
94,40	9,503	233,81	718,37	-3,117	
94,42	9,503	227,11	718,31	-3,117	
94,44	9,503	220,38	718,25	-3,118	
94,46	9,503	213,66	718,17	-3,118	
94,48	9,503	206,56	718,09	-3,119	
94,50	9,503	198,37	718,02	-3,119	
94,52	9,503	190,58	717,96	-3,120	
94,54	9,503	183,63	717,92	-3,121	
94,56	9,503	177,92	717,87	-3,121	
94,58	9,503	171,61	717,81	-3,122	
94,60	9,503	164,57	717,73	-3,122	
94,62	9,503	158,74	717,65	-3,123	
94,64	9,503	152,96	717,57	-3,123	
94,66	9,503	146,59	717,49	-3,124	
94,68	9,503	139,94	717,42	-3,124	
94,70	9,503	133,21	717,33	-3,125	
94,72	9,503	126,43	717,24	-3,125	
94,74	9,503	119,79	717,15	-3,126	
94,76	9,503	114,18	717,05	-3,126	
94,78	9,503	108,86	716,94	-3,127	
94,80	9,503	102,83	716,85	-3,127	
94,82	9,503	97,31	716,77	-3,128	
94,84	9,503	92,12	716,66	-3,128	
94,86	9,503	87,11	716,53	-3,129	
94,88	9,503	82,00	716,42	-3,129	
94,90	9,503	77,02	716,30	-3,129	
94,92	9,503	72,30	716,17	-3,130	
94,94	9,503	67,80	716,02	-3,130	
94,96	9,503	63,34	715,88	-3,131	
94,98	9,503	58,83	715,75	-3,131	
95,00	9,503	54,75	715,61	-3,132	
95,02	9,503	51,26	715,47	-3,132	
95,04	9,503	47,92	715,32	-3,132	
95,06	9,503	44,56	715,16	-3,133	
95,08	9,503	41,15	715,00	-3,133	
95,10	9,503	37,77	714,83	-3,133	
95,12	9,503	34,44	714,67	-3,134	
95,14	9,503	31,13	714,50	-3,134	
95,16	9,503	27,84	714,31	-3,135	
95,18	9,503	25,14	714,12	-3,135	
95,20	9,503	22,42	713,93	-3,135	
95,22	9,503	19,65	713,74	-3,136	
95,24	9,503	17,15	713,55	-3,136	
95,26	9,503	14,94	713,35	-3,136	
95,28	9,503	12,65	713,15	-3,136	
95,30	9,503	10,44	712,94	-3,137	
95,32	9,503	8,420	712,74	-3,137	
95,34	9,503	6,413	712,54	-3,137	
95,36	9,503	4,784	712,31	-3,138	
95,38	9,503	2,753	712,08	-3,138	
95,40	9,503	1,110	711,84	-3,138	
95,42	9,503	-0,6900	711,62	-3,138	
95,44	9,503	-1,806	711,40	-3,139	
95,46	9,503	-2,546	711,17	-3,139	
95,48	9,503	-4,046	710,93	-3,139	
95,50	9,503	-5,228	710,69	-3,139	
95,52	9,503	-5,561	710,45	-3,139	
95,54	9,503	-5,999	710,20	-3,140	
95,56	9,503	-7,506	709,96	-3,140	
95,58	9,503	-8,691	709,72	-3,140	
95,60	9,503	-9,048	709,47	-3,140	
95,62	9,503	-9,041	709,20	-3,140	
95,64	9,503	-9,441	708,93	-3,141	
95,66	9,503	-10,90	708,65	-3,141	
95,68	9,503	-11,98	708,39	-3,141	
95,70	9,503	-12,30	708,13	-3,141	
95,72	9,503	-12,25	707,85	-3,141	
95,74	9,503	-12,24	707,56	-3,142	
95,76	9,503	-12,27	707,28	-3,142	
95,78	9,503	-12,23	707,00	-3,142	
95,80	9,503	-12,23	706,70	-3,142	
95,82	9,503	-12,22	706,39	-3,142	
95,84	9,503	-12,18	706,08	-3,142	
95,86	9,503	-12,16	705,77	-3,142	
95,88	9,503	-12,19	705,49	-3,142	
95,90	9,503	-12,28	705,21	-3,142	
95,92	9,503	-12,33	704,93	-3,142	
95,94	9,503	-12,35	704,64	-3,143	
95,96	9,503	-12,28	704,35	-3,143	
95,98	9,503	-11,23	704,07	-3,143	
96,00	9,503	-9,757	703,79	-3,143	
96,02	9,503	-9,034	703,52	-3,143	
96,04	9,503	-8,934	703,24	-3,143	
96,06	9,503	-8,985	702,95	-3,143	
96,08	9,503	-8,999	702,64	-3,143	
96,10	9,503	-8,960	702,33	-3,143	
96,12	9,503	-8,500	702,02	-3,143	
96,14	9,503	-7,019	701,72	-3,143	
96,16	9,503	-5,873	701,41	-3,143	
96,18	9,503	-5,475	701,11	-3,144	
96,20	9,503	-5,436	700,79	-3,144	
96,22	9,503	-5,431	700,48	-3,144	
96,24	9,503	-4,428	700,17	-3,144	
96,26	9,503	-2,976	699,86	-3,144	
96,28	9,503	-2,235	699,54	-3,144	
96,30	9,503	-2,114	699,23	-3,144	
96,32	9,503	-1,794	698,94	-3,144	
96,34	9,503	-0,3065	698,64	-3,144	
96,36	9,503	0,8728	698,32	-3,144	
96,38	9,503	1,179	697,99	-3,144	
96,40	9,503	1,781	697,67	-3,144	
96,42	9,503	3,358	697,35	-3,144	
96,44	9,503	4,322	697,02	-3,144	
96,46	9,503	4,907	696,70	-3,144	
96,48	9,503	6,302	696,38	-3,144	
96,50	9,503	7,404	696,05	-3,144	
96,52	9,503	8,325	695,73	-3,144	
96,54	9,503	10,01	695,42	-3,144	
96,56	9,503	11,14	695,10	-3,144	
96,58	9,503	12,48	694,77	-3,144	
96,60	9,503	13,97	694,45	-3,144	
96,62	9,503	14,74	694,14	-3,144	
96,64	9,503	15,88	693,83	-3,144	
96,66	9,503	17,26	693,52	-3,144	
96,68	9,503	18,31	693,21	-3,144	
96,70	9,503	19,91	692,90	-3,144	
96,72	9,503	21,12	692,56	-3,144	
96,74	9,503	22,52	692,22	-3,144	
96,76	9,503	23,95	691,90	-3,144	
96,78	9,503	24,66	691,58	-3,144	
96,80	9,503	25,81	691,25	-3,144	
96,82	9,503	27,32	690,94	-3,144	
96,84	9,503	29,07	690,64	-3,144	
96,86	9,503	30,69	690,32	-3,144	
96,88	9,503	31,81	689,98	-3,144	
96,90	9,503	33,42	689,64	-3,144	
96,92	9,503	34,62	689,31	-3,144	
96,94	9,503	36,02	688,99	-3,144	
96,96	9,503	37,54	688,66	-3,144	
96,98	9,503	38,63	688,32	-3,144	
97,00	9,503	40,15	687,99	-3,144	
97,02	9,503	41,71	687,66	-3,144	
97,04	9,503	43,54	687,33	-3,144	
97,06	9,503	45,12	686,98	-3,144	
97,08	9,503	46,99	686,63	-3,144	
97,10	9,503	48,62	686,28	-3,144	
97,12	9,503	50,41	685,94	-3,144	
97,14	9,503	51,56	685,61	-3,144	
97,16	9,503	52,89	685,27	-3,144	
97,18	9,503	54,42	684,92	-3,144	
97,20	9,503	56,13	684,57	-3,144	
97,22	9,503	57,74	684,24	-3,144	
97,24	9,503	59,47	683,90	-3,144	
97,26	9,503	61,18	683,57	-3,144	
97,28	9,503	62,92	683,24	-3,144	